Date and Time:                Fri Nov 22 16:06:33.003 2024
Software Version:             4.32.30091.0
Temperature (C):              -80
Model:                        DU420_OE
Data Type:                    Counts
Acquisition Mode:             Single Scan
Trigger Mode:                 Internal
Exposure Time (secs):         100
Readout Mode:                 Full Vertical Binning
Horizontal binning:           1
Shutter Mode:                 Fully AUTO
TTL level:                    High
Time to open:                 10 ms
Time to close:                0 ms
Extended Data Range:          off
Horizontally flipped:         false
Vertical Shift Speed (usecs): 32.25
Pixel Readout Time (usecs):   10
Serial Number:                CCD-28590
Pre-Amplifier Gain:           1.7x
Spurious Noise Filter Mode:   No Filter
Photon counted:               false
Data Averaging Filter Mode:   No Filter
KY193i:
Serial Number:                KY-4498
Wavelength (nm):              1033.09
Grating Groove Density (l/mm):600
Grating Blaze:                1000nm



936.51904,266
936.71027,267
936.90149,270
937.09271,267
937.28394,269
937.47516,265
937.66632,269
937.85754,274
938.04871,352
938.23987,679
938.43109,285
938.62225,271
938.81342,270
939.00452,268
939.19568,272
939.38684,270
939.57794,275
939.76904,275
939.96014,273
940.15131,270
940.34241,274
940.53345,279
940.72455,273
940.91565,275
941.10669,276
941.29779,275
941.48883,277
941.67987,274
941.87091,270
942.06195,276
942.25299,276
942.44397,277
942.63501,276
942.82599,275
943.01703,273
943.20801,277
943.39899,276
943.58997,280
943.78094,278
943.97186,283
944.16284,277
944.35376,280
944.54474,282
944.73566,280
944.92657,281
945.11749,280
945.30841,281
945.49927,281
945.69019,282
945.8811,288
946.07196,285
946.26282,281
946.45367,285
946.64453,287
946.83539,285
947.02625,288
947.21704,288
947.4079,284
947.59869,286
947.78949,289
947.98035,287
948.17114,291
948.36188,289
948.55267,291
948.74347,291
948.9342,296
949.125,294
949.31573,294
949.50647,297
949.6972,298
949.88794,300
950.07867,298
950.26935,303
950.46008,304
950.65076,301
950.84143,303
951.0321,304
951.22278,310
951.41345,309
951.60413,304
951.79474,304
951.98541,306
952.17603,313
952.36664,306
952.55725,309
952.74786,315
952.93848,315
953.12909,316
953.31964,314
953.51025,320
953.70081,321
953.89136,323
954.08191,322
954.27246,327
954.46301,324
954.6535,326
954.84406,325
955.03455,335
955.2251,335
955.41559,335
955.60608,343
955.79651,342
955.987,337
956.17749,341
956.36792,342
956.55835,345
956.74884,351
956.93927,350
957.1297,352
957.32007,350
957.5105,358
957.70087,364
957.8913,362
958.08167,363
958.27203,370
958.4624,373
958.65277,380
958.84314,377
959.03345,379
959.22382,376
959.41412,376
959.60443,388
959.79474,386
959.98505,383
960.17535,387
960.3656,392
960.55591,385
960.74615,387
960.9364,388
961.12665,401
961.31689,392
961.50714,394
961.69739,386
961.88757,395
962.07782,397
962.26801,392
962.45819,393
962.64838,403
962.83856,382
963.02875,397
963.21887,394
963.409,395
963.59918,398
963.78931,399
963.97943,406
964.16956,398
964.35962,393
964.54974,404
964.73981,401
964.92993,399
965.12,395
965.31006,394
965.50012,399
965.69012,403
965.88019,403
966.07019,405
966.26025,404
966.45026,397
966.64026,394
966.83026,401
967.0202,403
967.21021,399
967.40021,399
967.59015,402
967.78009,398
967.97003,406
968.15997,412
968.34991,409
968.53979,415
968.72974,416
968.91962,403
969.1095,412
969.29938,416
969.48926,415
969.67914,414
969.86896,417
970.05884,416
970.24866,418
970.43848,422
970.6283,419
970.81812,432
971.00787,425
971.19769,437
971.38745,426
971.57727,436
971.76703,440
971.95679,442
972.14648,440
972.33624,449
972.526,459
972.7157,455
972.9054,466
973.09509,463
973.28479,469
973.47449,475
973.66418,476
973.85382,485
974.04346,491
974.23315,488
974.42279,492
974.61237,495
974.802,496
974.99164,489
975.18121,493
975.37079,497
975.56042,509
975.75,503
975.93951,511
976.12909,520
976.31866,526
976.50818,513
976.69769,523
976.88721,527
977.07672,543
977.26624,539
977.45569,530
977.6452,523
977.83466,537
978.02411,547
978.21356,527
978.40302,551
978.59247,543
978.78186,539
978.97131,542
979.16071,536
979.3501,545
979.53949,549
979.72888,550
979.91821,547
980.1076,534
980.29694,561
980.48627,544
980.6756,536
980.86493,549
981.05426,547
981.24353,552
981.43286,565
981.62213,555
981.8114,549
982.00067,564
982.18988,578
982.37915,563
982.56836,555
982.75763,570
982.94684,575
983.13605,574
983.32526,575
983.5144,569
983.70361,560
983.89276,577
984.08191,585
984.27106,568
984.46021,578
984.64935,598
984.83844,578
985.02753,600
985.21667,588
985.40576,574
985.59485,587
985.78387,602
985.97296,612
986.16199,590
986.35107,613
986.5401,613
986.72913,621
986.91809,624
987.10712,624
987.29608,624
987.48511,619
987.67407,619
987.86304,617
988.05194,622
988.24091,618
988.42981,637
988.61877,617
988.80768,614
988.99658,635
989.18549,630
989.37433,646
989.56323,644
989.75208,635
989.94092,640
990.12976,642
990.3186,660
990.50745,652
990.69623,652
990.88507,659
991.07385,656
991.26263,654
991.45135,685
991.64014,665
991.82892,672
992.01764,676
992.20636,660
992.39508,666
992.5838,659
992.77252,666
992.96118,698
993.14984,672
993.33856,657
993.52722,669
993.71582,679
993.90448,669
994.09314,671
994.28174,677
994.47034,667
994.65894,667
994.84753,639
995.03613,665
995.22467,668
995.41321,664
995.60175,664
995.79028,661
995.97882,648
996.16736,650
996.35583,645
996.54437,622
996.73285,631
996.92133,630
997.10974,623
997.29822,624
997.48663,636
997.67511,618
997.86353,622
998.05194,607
998.2403,613
998.42871,632
998.61707,636
998.80548,626
998.99384,622
999.18219,607
999.37048,616
999.55884,613
999.74713,607
999.93542,592
1000.1237,568
1000.312,579
1000.5003,574
1000.6885,583
1000.8768,556
1001.0651,545
1001.2533,559
1001.4415,546
1001.6297,521
1001.8179,524
1002.0061,512
1002.1943,494
1002.3824,484
1002.5706,479
1002.7587,473
1002.9469,445
1003.135,434
1003.3231,429
1003.5112,439
1003.6993,422
1003.8874,411
1004.0754,410
1004.2635,407
1004.4515,399
1004.6396,393
1004.8276,387
1005.0156,386
1005.2037,389
1005.3917,391
1005.5797,391
1005.7676,375
1005.9556,376
1006.1435,365
1006.3314,367
1006.5193,372
1006.7073,356
1006.8952,349
1007.0831,339
1007.271,331
1007.4589,312
1007.6467,303
1007.8345,283
1008.0224,280
1008.2102,274
1008.398,269
1008.5858,269
1008.7736,266
1008.9614,265
1009.1492,267
1009.337,267
1009.5247,265
1009.7125,268
1009.9001,265
1010.0879,264
1010.2756,269
1010.4633,266
1010.6509,268
1010.8386,269
1011.0263,267
1011.2139,267
1011.4016,270
1011.5892,268
1011.7769,267
1011.9644,267
1012.152,265
1012.3396,266
1012.5272,265
1012.7147,263
1012.9023,266
1013.0898,266
1013.2773,269
1013.4648,266
1013.6523,263
1013.8398,267
1014.0273,266
1014.2148,265
1014.4023,263
1014.5897,271
1014.7772,269
1014.9645,266
1015.152,266
1015.3394,265
1015.5267,266
1015.7141,265
1015.9015,267
1016.0889,263
1016.2762,266
1016.4635,265
1016.6508,266
1016.8381,263
1017.0255,266
1017.2127,270
1017.4,265
1017.5873,268
1017.7745,269
1017.9617,272
1018.149,265
1018.3362,263
1018.5234,268
1018.7106,268
1018.8978,263
1019.0849,267
1019.2721,267
1019.4592,269
1019.6464,267
1019.8335,270
1020.0206,266
1020.2077,270
1020.3948,266
1020.5818,265
1020.7689,270
1020.9559,264
1021.143,267
1021.33,267
1021.517,261
1021.704,270
1021.891,268
1022.078,267
1022.265,268
1022.4519,269
1022.6389,267
1022.8258,264
1023.0127,266
1023.1996,264
1023.3865,268
1023.5734,267
1023.7603,268
1023.9471,265
1024.1339,268
1024.3208,268
1024.5076,271
1024.6945,267
1024.8812,269
1025.068,266
1025.2548,267
1025.4415,264
1025.6283,270
1025.8151,268
1026.0018,266
1026.1885,266
1026.3752,267
1026.5619,264
1026.7485,269
1026.9352,265
1027.1218,266
1027.3085,266
1027.4951,266
1027.6818,269
1027.8684,272
1028.0549,269
1028.2416,269
1028.4281,271
1028.6146,275
1028.8013,282
1028.9878,291
1029.1743,300
1029.3607,315
1029.5472,366
1029.7338,394
1029.9202,354
1030.1067,316
1030.2931,291
1030.4795,271
1030.666,271
1030.8524,274
1031.0388,271
1031.2251,270
1031.4115,269
1031.5979,270
1031.7842,266
1031.9706,268
1032.1569,271
1032.3431,269
1032.5295,268
1032.7158,270
1032.9021,272
1033.0883,267
1033.2745,268
1033.4608,271
1033.647,268
1033.8333,266
1034.0194,267
1034.2056,270
1034.3917,267
1034.5779,270
1034.764,267
1034.9502,269
1035.1364,271
1035.3224,272
1035.5085,267
1035.6946,268
1035.8806,268
1036.0668,273
1036.2528,270
1036.4388,268
1036.6248,270
1036.8108,268
1036.9968,270
1037.1827,266
1037.3688,270
1037.5547,268
1037.7406,269
1037.9266,270
1038.1125,270
1038.2983,269
1038.4843,272
1038.6702,271
1038.8561,265
1039.0419,268
1039.2278,268
1039.4136,267
1039.5994,270
1039.7852,265
1039.9709,268
1040.1567,269
1040.3425,269
1040.5282,268
1040.714,264
1040.8997,269
1041.0854,270
1041.2711,268
1041.4568,272
1041.6425,269
1041.8281,268
1042.0138,269
1042.1993,267
1042.385,271
1042.5706,271
1042.7562,268
1042.9418,266
1043.1273,268
1043.3129,267
1043.4984,273
1043.684,266
1043.8695,271
1044.0549,270
1044.2405,270
1044.4259,266
1044.6115,269
1044.7969,269
1044.9823,268
1045.1677,269
1045.3531,268
1045.5385,270
1045.7239,269
1045.9093,270
1046.0946,270
1046.2799,267
1046.4653,274
1046.6506,272
1046.8359,272
1047.0212,273
1047.2064,269
1047.3917,267
1047.577,268
1047.7622,268
1047.9474,274
1048.1327,270
1048.3179,271
1048.5031,266
1048.6882,271
1048.8733,273
1049.0585,268
1049.2437,268
1049.4287,269
1049.6138,267
1049.799,269
1049.984,271
1050.1691,271
1050.3541,273
1050.5391,268
1050.7241,267
1050.9092,274
1051.0941,268
1051.2791,270
1051.4641,270
1051.649,270
1051.834,270
1052.0189,271
1052.2039,271
1052.3887,271
1052.5736,272
1052.7584,271
1052.9434,268
1053.1282,266
1053.313,269
1053.4978,270
1053.6826,270
1053.8674,273
1054.0521,267
1054.2369,275
1054.4216,270
1054.6064,271
1054.7911,271
1054.9758,271
1055.1605,274
1055.3452,270
1055.5298,270
1055.7145,267
1055.8992,271
1056.0837,274
1056.2683,267
1056.453,270
1056.6376,275
1056.8221,270
1057.0066,274
1057.1912,271
1057.3757,271
1057.5602,268
1057.7448,270
1057.9292,271
1058.1136,270
1058.2981,270
1058.4825,269
1058.667,270
1058.8514,272
1059.0358,269
1059.2202,269
1059.4045,270
1059.5889,276
1059.7732,273
1059.9575,270
1060.1418,271
1060.3262,271
1060.5105,271
1060.6947,270
1060.879,272
1061.0632,270
1061.2474,269
1061.4316,269
1061.6158,272
1061.8,272
1061.9843,270
1062.1685,272
1062.3525,272
1062.5367,271
1062.7208,271
1062.9049,268
1063.089,269
1063.2731,269
1063.4572,272
1063.6411,270
1063.8252,272
1064.0092,270
1064.1932,273
1064.3772,271
1064.5612,273
1064.7451,270
1064.9291,272
1065.113,272
1065.2969,270
1065.4808,272
1065.6647,271
1065.8485,273
1066.0325,269
1066.2163,270
1066.4001,272
1066.5839,270
1066.7677,269
1066.9515,268
1067.1353,270
1067.319,272
1067.5028,273
1067.6865,271
1067.8702,271
1068.0538,268
1068.2375,272
1068.4213,267
1068.6049,267
1068.7886,271
1068.9722,268
1069.1558,272
1069.3394,271
1069.5229,271
1069.7065,269
1069.89,267
1070.0736,270
1070.2571,272
1070.4407,269
1070.6241,271
1070.8076,268
1070.9911,274
1071.1744,273
1071.3579,272
1071.5414,272
1071.7247,269
1071.9081,266
1072.0916,264
1072.2749,271
1072.4583,267
1072.6415,268
1072.8248,271
1073.0082,270
1073.1914,269
1073.3748,268
1073.558,268
1073.7412,268
1073.9244,268
1074.1077,269
1074.2908,270
1074.474,270
1074.6572,270
1074.8403,271
1075.0234,274
1075.2065,263
1075.3896,270
1075.5728,273
1075.7559,273
1075.939,272
1076.1219,267
1076.3049,268
1076.488,269
1076.671,271
1076.854,272
1077.037,271
1077.2198,273
1077.4028,273
1077.5858,268
1077.7687,267
1077.9515,268
1078.1344,269
1078.3173,270
1078.5001,267
1078.683,269
1078.8658,270
1079.0486,272
1079.2314,269
1079.4142,266
1079.5969,271
1079.7797,270
1079.9624,267
1080.1451,268
1080.3278,269
1080.5105,265
1080.6931,269
1080.8759,266
1081.0585,273
1081.2411,269
1081.4237,272
1081.6062,267
1081.7888,270
1081.9714,271
1082.1539,271
1082.3364,270
1082.5189,273
1082.7014,268
1082.8839,270
1083.0664,271
1083.2489,266
1083.4313,271
1083.6136,269
1083.7961,268
1083.9785,270
1084.1609,266
1084.3433,272
1084.5255,266
1084.7079,269
1084.8903,270
1085.0725,263
1085.2548,270
1085.437,270
1085.6193,268
1085.8015,271
1085.9838,271
1086.1659,267
1086.3481,267
1086.5303,270
1086.7124,270
1086.8945,269
1087.0767,264
1087.2588,270
1087.4409,268
1087.6229,271
1087.8051,270
1087.9871,265
1088.1691,272
1088.3511,268
1088.5331,267
1088.7151,267
1088.8971,269
1089.079,268
1089.261,272
1089.4429,269
1089.6248,269
1089.8066,268
1089.9885,267
1090.1704,267
1090.3522,265
1090.5341,268
1090.7158,270
1090.8976,267
1091.0793,267
1091.2611,266
1091.4429,268
1091.6246,269
1091.8063,268
1091.988,270
1092.1697,269
1092.3513,267
1092.533,265
1092.7146,268
1092.8962,264
1093.0779,266
1093.2594,267
1093.441,264
1093.6226,268
1093.8041,269
1093.9856,264
1094.1671,268
1094.3486,268
1094.53,266
1094.7115,267
1094.8929,265
1095.0743,266
1095.2557,264
1095.4371,265
1095.6185,269
1095.7999,269
1095.9812,266
1096.1626,266
1096.3439,267
1096.5251,266
1096.7064,266
1096.8877,263
1097.069,265
1097.2501,268
1097.4314,266
1097.6125,263
1097.7937,268
1097.9749,269
1098.156,264
1098.3372,263
1098.5183,265
1098.6993,265
1098.8804,260
1099.0615,265
1099.2426,263
1099.4236,267
1099.6046,263
1099.7855,263
1099.9666,266
1100.1475,264
1100.3285,266
1100.5094,265
1100.6903,263
1100.8712,262
1101.0521,266
1101.2329,265
1101.4138,265
1101.5946,263
1101.7754,266
1101.9562,264
1102.137,263
1102.3177,264
1102.4985,264
1102.6793,267
1102.86,265
1103.0406,265
1103.2213,263
1103.402,263
1103.5826,266
1103.7633,268
1103.944,265
1104.1245,263
1104.3051,260
1104.4856,265
1104.6663,261
1104.8467,266
1105.0272,265
1105.2078,264
1105.3882,261
1105.5687,260
1105.7491,259
1105.9296,262
1106.11,259
1106.2904,259
1106.4707,260
1106.6511,264
1106.8314,263
1107.0118,263
1107.1921,259
1107.3724,261
1107.5526,261
1107.7329,262
1107.9132,263
1108.0934,260
1108.2736,260
1108.4539,263
1108.634,261
1108.8141,261
1108.9943,261
1109.1744,263
1109.3545,261
1109.5345,260
1109.7147,258
1109.8948,261
1110.0748,260
1110.2548,257
1110.4348,260
1110.6147,258
1110.7948,258
1110.9747,259
1111.1547,260
1111.3346,260
1111.5145,258
1111.6943,256
1111.8743,260
1112.0541,259
1112.2339,255
1112.4137,259
1112.5935,257
1112.7733,255
1112.9531,255
1113.1328,261
1113.3125,260
1113.4923,259
1113.672,258
1113.8517,262
1114.0313,259
1114.2109,312
1114.3906,731
1114.5702,292
1114.7498,260
1114.9293,258
1115.1089,257
1115.2885,261
1115.468,256
1115.6475,259
1115.8269,255
1116.0065,255
1116.1859,259
1116.3654,261
1116.5447,256
1116.7241,256
1116.9036,258
1117.0829,258
1117.2622,253
1117.4415,251
1117.6208,256
1117.8002,257
1117.9795,258
1118.1587,256
1118.3379,258
1118.5172,254
1118.6964,256
1118.8756,257
1119.0547,256
1119.2339,257
1119.4131,254
1119.5922,258
1119.7712,253
1119.9503,258
1120.1294,263
1120.3085,256
1120.4874,258
1120.6665,254
1120.8455,255
1121.0244,256
1121.2034,256
1121.3823,257
1121.5613,255
1121.7402,253
1121.9191,257
1122.0979,258
1122.2769,252
1122.4557,253
1122.6344,258
1122.8132,256
1122.9921,254
1123.1708,256
1123.3495,256
1123.5283,256
1123.707,253
1123.8856,257
1124.0643,254
1124.243,257
1124.4216,256
1124.6002,254
1124.7788,256
1124.9574,254
1125.136,256
1125.3146,255
1125.493,258
1125.6716,257
1125.8501,256
1126.0286,256
1126.207,253
1126.3855,255
1126.5638,255
