Date and Time:                Mon Nov 18 14:40:08.718 2024
Software Version:             4.32.30091.0
Temperature (C):              -80
Model:                        DU420_OE
Data Type:                    Counts
Acquisition Mode:             Single Scan
Trigger Mode:                 Internal
Exposure Time (secs):         100
Readout Mode:                 Full Vertical Binning
Horizontal binning:           1
Shutter Mode:                 Fully AUTO
TTL level:                    High
Time to open:                 10 ms
Time to close:                0 ms
Extended Data Range:          off
Horizontally flipped:         false
Vertical Shift Speed (usecs): 32.25
Pixel Readout Time (usecs):   10
Serial Number:                CCD-28590
Pre-Amplifier Gain:           1.7x
Spurious Noise Filter Mode:   No Filter
Photon counted:               false
Data Averaging Filter Mode:   No Filter
KY193i:
Serial Number:                KY-4498
Wavelength (nm):              952.408
Grating Groove Density (l/mm):600
Grating Blaze:                1000nm



854.32172,358
854.51575,375
854.70972,389
854.90375,422
855.09772,409
855.29169,307
855.48566,261
855.67963,250
855.8736,253
856.06757,253
856.26154,250
856.45544,250
856.64941,252
856.84332,252
857.03723,254
857.2312,251
857.42511,251
857.61902,252
857.81287,252
858.00677,289
858.20068,599
858.39453,280
858.58844,251
858.78229,256
858.97614,250
859.16998,253
859.36383,251
859.55768,255
859.75153,250
859.94537,252
860.13916,249
860.33301,253
860.52679,255
860.72064,254
860.91443,253
861.10822,256
861.302,251
861.49579,253
861.68951,252
861.8833,253
862.07703,252
862.27081,254
862.46454,250
862.65826,253
862.85199,252
863.04572,256
863.23944,256
863.43317,253
863.62683,252
863.82056,258
864.01422,257
864.20795,255
864.40161,254
864.59528,257
864.78894,256
864.9826,256
865.17627,253
865.36987,258
865.56354,258
865.75714,257
865.95074,258
866.14441,257
866.33801,256
866.53162,254
866.72522,257
866.91876,257
867.11237,260
867.30591,260
867.49951,260
867.69305,260
867.8866,260
868.08014,259
868.27368,260
868.46722,261
868.66077,260
868.85425,260
869.04779,260
869.24127,261
869.43475,260
869.6283,261
869.82178,264
870.01526,262
870.20868,262
870.40216,264
870.59564,261
870.78906,263
870.98248,263
871.1759,266
871.36938,261
871.56281,266
871.75616,264
871.94958,264
872.14301,262
872.33636,269
872.52979,265
872.72314,266
872.9165,267
873.10986,268
873.30322,264
873.49658,268
873.68988,268
873.88324,269
874.07654,269
874.2699,271
874.4632,271
874.65649,274
874.84979,271
875.04309,269
875.23633,273
875.42963,273
875.62292,274
875.81616,274
876.0094,274
876.20264,277
876.39587,278
876.58911,277
876.78235,281
876.97552,281
877.16876,282
877.36194,283
877.55511,287
877.74835,291
877.94153,287
878.13464,300
878.32782,301
878.521,302
878.71411,306
878.90729,304
879.1004,308
879.29352,306
879.48663,304
879.67975,311
879.87286,295
880.06592,299
880.25903,299
880.45209,301
880.6452,293
880.83826,295
881.03131,296
881.22437,292
881.41736,292
881.61041,288
881.80341,290
881.99646,287
882.18945,287
882.38245,288
882.57544,288
882.76843,291
882.96143,291
883.15436,289
883.34735,287
883.54028,289
883.73322,298
883.92615,293
884.11908,299
884.31201,298
884.50494,297
884.69781,293
884.89075,291
885.08362,293
885.27649,295
885.46936,297
885.66223,293
885.8551,299
886.04797,297
886.24078,300
886.43365,300
886.62646,303
886.81927,303
887.01208,302
887.2049,294
887.39771,298
887.59045,302
887.78326,301
887.97601,302
888.16876,303
888.36151,303
888.55426,306
888.74701,308
888.93976,303
889.13245,309
889.3252,310
889.51788,308
889.71057,307
889.90326,309
890.09595,307
890.28864,318
890.48126,307
890.67395,311
890.86658,311
891.0592,318
891.25189,314
891.44446,312
891.63708,313
891.82971,318
892.02228,321
892.2149,316
892.40747,320
892.60004,313
892.7926,322
892.98517,323
893.17773,325
893.37024,324
893.56281,318
893.75531,325
893.94781,324
894.14032,320
894.33282,328
894.52533,321
894.71777,325
894.91028,325
895.10272,326
895.29517,332
895.48761,327
895.68005,330
895.8725,324
896.06488,328
896.25732,327
896.44971,328
896.64209,326
896.83447,327
897.02686,332
897.21924,335
897.41162,326
897.60394,329
897.79633,329
897.98865,334
898.18097,335
898.37329,331
898.56555,334
898.75787,335
898.9502,332
899.14246,332
899.33472,332
899.52698,334
899.71924,328
899.9115,332
900.1037,334
900.29596,332
900.48816,336
900.68036,333
900.87262,327
901.06476,334
901.25696,332
901.44916,334
901.6413,331
901.8335,337
902.02563,328
902.21777,333
902.40991,331
902.60199,333
902.79413,326
902.98621,331
903.17834,333
903.37042,330
903.5625,323
903.75458,330
903.94659,331
904.13867,333
904.33069,333
904.52277,334
904.71478,328
904.9068,332
905.09882,330
905.29077,333
905.48279,333
905.67474,333
905.8667,326
906.05865,329
906.25061,321
906.44257,320
906.63452,320
906.82642,328
907.01837,324
907.21027,326
907.40216,327
907.59406,325
907.78589,326
907.97778,322
908.16962,327
908.36151,331
908.55334,322
908.74518,318
908.93695,326
909.12878,318
909.32062,317
909.51239,318
909.70416,318
909.89594,318
910.08771,325
910.27948,316
910.47119,327
910.66296,317
910.85468,317
911.04639,312
911.2381,316
911.42981,315
911.62152,315
911.81317,318
912.00488,309
912.19653,310
912.38818,316
912.57983,306
912.77142,312
912.96307,308
913.15466,313
913.34631,307
913.5379,306
913.72949,309
913.92102,311
914.11261,311
914.3042,313
914.49573,308
914.68726,310
914.87878,306
915.07031,305
915.26178,308
915.45331,311
915.64478,303
915.8363,306
916.02777,303
916.21924,303
916.41064,311
916.60211,311
916.79352,305
916.98492,307
917.17639,311
917.3678,298
917.55914,306
917.75055,303
917.94189,304
918.1333,308
918.32465,305
918.51599,314
918.70734,311
918.89862,310
919.08997,304
919.28125,303
919.47253,307
919.66382,306
919.8551,313
920.04639,308
920.23761,311
920.42883,311
920.62012,303
920.81134,303
921.00256,306
921.19373,304
921.38495,313
921.57611,312
921.76727,321
921.95844,314
922.1496,310
922.34076,308
922.53186,308
922.72302,303
922.91412,305
923.10522,303
923.29633,308
923.48743,304
923.67847,308
923.86957,315
924.06061,309
924.25165,308
924.44269,308
924.63367,303
924.82471,302
925.01569,299
925.20673,305
925.39771,311
925.58868,307
925.7796,314
925.97058,311
926.1615,308
926.35242,306
926.54333,304
926.73425,303
926.92517,304
927.11603,304
927.30695,303
927.4978,308
927.68866,312
927.87952,310
928.07037,312
928.26117,308
928.45197,303
928.64282,303
928.83362,305
929.02435,308
929.21515,305
929.40588,308
929.59668,313
929.78741,313
929.97815,313
930.16888,313
930.35956,309
930.55029,309
930.74097,306
930.93164,310
931.12231,306
931.31299,299
931.5036,307
931.69427,306
931.88489,312
932.0755,311
932.26611,309
932.45673,307
932.64728,304
932.83789,309
933.02844,307
933.21899,303
933.40955,312
933.60004,306
933.79059,313
933.98108,309
934.17157,309
934.36206,303
934.55255,308
934.74304,306
934.93347,303
935.1239,298
935.31433,304
935.50476,305
935.69519,309
935.88556,311
936.07599,311
936.26636,312
936.45673,309
936.64709,304
936.8374,305
937.02777,303
937.21808,302
937.40839,300
937.59869,298
937.789,297
937.97931,300
938.16956,304
938.3598,302
938.55005,311
938.7403,304
938.93054,305
939.12073,307
939.31097,307
939.50116,301
939.69135,303
939.88147,302
940.07166,305
940.26178,303
940.45197,305
940.64209,301
940.83221,313
941.02228,312
941.2124,313
941.40247,315
941.59253,309
941.78259,313
941.97266,306
942.16266,306
942.35272,308
942.54272,301
942.73273,309
942.92273,311
943.11273,310
943.30267,308
943.49261,315
943.68256,313
943.8725,307
944.06244,312
944.25238,314
944.44226,315
944.63214,308
944.82202,313
945.0119,311
945.20178,310
945.3916,313
945.58142,304
945.77124,315
945.96106,313
946.15088,310
946.34064,311
946.53046,312
946.72021,317
946.90997,318
947.09967,311
947.28943,312
947.47913,318
947.66888,311
947.85858,317
948.04822,316
948.23792,316
948.42755,317
948.61725,314
948.80688,316
948.99652,319
949.1861,320
949.37573,322
949.56531,324
949.75488,324
949.94446,323
950.13403,319
950.32355,320
950.51306,322
950.70264,325
950.89215,320
951.0816,326
951.27112,322
951.46057,329
951.65002,332
951.83948,329
952.02893,332
952.21838,328
952.40778,328
952.59717,327
952.78656,328
952.97595,327
953.16534,333
953.35468,330
953.54401,338
953.7334,329
953.92267,347
954.112,350
954.30127,348
954.4906,343
954.67987,349
954.86914,349
955.05835,349
955.24762,352
955.43683,350
955.62604,358
955.81525,367
956.00446,365
956.1936,373
956.38281,363
956.57196,375
956.76111,380
956.9502,383
957.13934,375
957.32843,384
957.51752,392
957.7066,397
957.89569,407
958.08472,403
958.2738,395
958.46283,395
958.65186,420
958.84082,418
959.02985,427
959.21881,416
959.40778,423
959.59674,413
959.78571,422
959.97467,421
960.16357,431
960.35248,434
960.54138,422
960.73029,421
960.91913,418
961.10803,416
961.29688,422
961.48572,422
961.6745,424
961.86334,422
962.05212,422
962.24091,418
962.42969,426
962.61847,414
962.80719,408
962.99597,406
963.18469,400
963.37341,406
963.56207,399
963.75079,387
963.93945,383
964.12811,388
964.31677,388
964.50543,379
964.69403,390
964.88263,391
965.07123,382
965.25983,387
965.44843,384
965.63696,370
965.8255,369
966.01404,368
966.20258,377
966.39111,370
966.57959,365
966.76807,359
966.95654,370
967.14502,372
967.3335,362
967.52191,368
967.71033,370
967.89874,369
968.08716,359
968.27551,366
968.46393,368
968.65228,366
968.84064,367
969.02893,361
969.21729,360
969.40558,371
969.59387,357
969.78217,372
969.97046,374
970.15869,369
970.34692,376
970.53516,366
970.72339,376
970.91162,387
971.09979,384
971.28796,392
971.47614,388
971.66431,391
971.85242,397
972.04059,399
972.2287,398
972.41681,402
972.60486,410
972.79297,409
972.98102,410
973.16907,407
973.35712,416
973.54517,417
973.73315,411
973.92114,415
974.10913,411
974.29712,410
974.48511,409
974.67303,417
974.86096,414
975.04889,409
975.23682,409
975.42468,417
975.61255,425
975.80042,422
975.98828,413
976.17615,424
976.36395,422
976.55176,413
976.73956,426
976.92737,421
977.11517,429
977.30292,431
977.49066,426
977.67841,425
977.86609,422
978.05383,418
978.24152,430
978.4292,437
978.61688,428
978.8045,435
978.99219,444
979.17981,442
979.36743,434
979.55505,437
979.74261,435
979.93018,451
980.11774,444
980.3053,431
980.49286,446
980.68036,445
980.86786,441
981.05536,449
981.24286,452
981.4303,453
981.6178,454
981.80524,454
981.99268,443
982.18005,446
982.36743,448
982.55487,448
982.74225,454
982.92957,456
983.11694,466
983.30426,455
983.49158,464
983.67889,465
983.86621,459
984.05347,453
984.24072,461
984.42798,460
984.61523,459
984.80243,454
984.98962,459
985.17682,461
985.36401,465
985.55121,470
985.73834,471
985.92548,470
986.11261,465
986.29974,463
986.48682,473
986.67395,478
986.86102,476
987.04803,479
987.23511,482
987.42212,489
987.60913,491
987.79614,497
987.98315,500
988.1701,487
988.35706,497
988.54401,491
988.73096,499
988.91791,496
989.1048,493
989.29169,502
989.47858,511
989.66541,512
989.85229,519
990.03912,531
990.22595,531
990.41272,526
990.59955,532
990.78632,530
990.97308,537
991.15985,534
991.34656,531
991.53333,531
991.72003,539
991.90668,526
992.09338,540
992.28003,541
992.46674,548
992.65332,549
992.83997,556
993.02661,535
993.2132,539
993.39978,544
993.5863,530
993.77289,538
993.95941,552
994.14594,550
994.33246,548
994.51898,557
994.70544,544
994.89191,555
995.07837,550
995.26483,545
995.45123,542
995.63763,549
995.82404,559
996.01044,560
996.19678,547
996.38312,541
996.56946,533
996.7558,535
996.94214,531
997.12842,519
997.3147,513
997.50098,513
997.68719,513
997.87347,510
998.05969,519
998.24591,503
998.43207,499
998.61829,493
998.80444,502
998.9906,486
999.1767,492
999.36285,493
999.54895,495
999.73505,497
999.92114,480
1000.1072,476
1000.2933,479
1000.4793,475
1000.6653,470
1000.8513,461
1001.0373,470
1001.2233,468
1001.4092,465
1001.5952,456
1001.7811,459
1001.967,459
1002.153,454
1002.3388,458
1002.5247,469
1002.7106,471
1002.8964,460
1003.0822,438
1003.2681,440
1003.4539,439
1003.6396,429
1003.8254,442
1004.0112,445
1004.1969,432
1004.3826,432
1004.5684,431
1004.754,439
1004.9397,440
1005.1254,443
1005.311,429
1005.4966,437
1005.6823,430
1005.8679,430
1006.0535,417
1006.2391,421
1006.4246,415
1006.6102,424
1006.7957,410
1006.9812,414
1007.1667,390
1007.3522,371
1007.5377,367
1007.7231,367
1007.9086,368
1008.094,355
1008.2794,348
1008.4648,347
1008.6502,346
1008.8356,345
1009.0209,346
1009.2062,349
1009.3916,347
1009.5769,354
1009.7621,351
1009.9474,358
1010.1327,350
1010.3179,355
1010.5032,350
1010.6884,347
1010.8736,346
1011.0588,348
1011.244,347
1011.4291,346
1011.6143,350
1011.7994,354
1011.9845,353
1012.1696,354
1012.3547,355
1012.5397,353
1012.7247,344
1012.9098,348
1013.0948,348
1013.2798,348
1013.4648,346
1013.6498,352
1013.8347,352
1014.0197,353
1014.2046,358
1014.3895,353
1014.5744,352
1014.7593,354
1014.9441,358
1015.129,357
1015.3138,356
1015.4986,355
1015.6834,349
1015.8682,363
1016.053,355
1016.2377,358
1016.4225,350
1016.6072,358
1016.7919,359
1016.9766,361
1017.1613,357
1017.3459,359
1017.5306,359
1017.7152,359
1017.8998,353
1018.0844,355
1018.269,349
1018.4536,357
1018.6381,355
1018.8226,358
1019.0071,362
1019.1917,363
1019.3762,361
1019.5606,367
1019.7451,362
1019.9295,365
1020.114,357
1020.2983,362
1020.4827,358
1020.6671,360
1020.8514,356
1021.0358,374
1021.2202,373
1021.4045,368
1021.5887,368
1021.773,369
1021.9573,355
1022.1415,360
1022.3258,364
1022.51,374
1022.6942,368
1022.8784,370
1023.0626,378
1023.2467,372
1023.4308,368
1023.615,371
1023.7991,363
1023.9832,359
1024.1672,367
1024.3513,367
1024.5354,370
1024.7194,371
1024.9034,368
1025.0874,374
1025.2714,374
1025.4553,378
1025.6393,365
1025.8232,375
1026.0071,370
1026.191,367
1026.3749,375
1026.5587,370
1026.7426,365
1026.9264,369
1027.1102,366
1027.2941,371
1027.4779,373
1027.6616,378
1027.8453,387
1028.0291,385
1028.2128,373
1028.3965,374
1028.5802,374
1028.7639,375
1028.9475,380
1029.1312,387
1029.3148,394
1029.4984,396
1029.682,404
1029.8656,398
1030.0491,393
1030.2327,383
1030.4161,387
1030.5997,388
1030.7832,380
1030.9667,380
1031.1501,380
1031.3335,382
1031.517,366
1031.7004,378
1031.8838,493
1032.0671,525
1032.2505,412
1032.4338,384
1032.6172,379
1032.8005,387
1032.9838,390
1033.1671,391
1033.3503,392
1033.5336,372
1033.7168,373
1033.9,377
1034.0833,375
1034.2664,374
1034.4496,379
1034.6327,382
1034.8158,393
1034.9989,389
1035.182,395
1035.3651,385
1035.5481,385
1035.7312,382
1035.9142,381
1036.0972,381
1036.2803,376
1036.4633,381
1036.6461,404
1036.8291,397
1037.0121,398
1037.1949,391
1037.3778,388
1037.5607,385
1037.7435,375
1037.9264,392
1038.1093,390
1038.292,407
1038.4749,405
1038.6576,404
1038.8403,393
1039.0231,387
1039.2058,391
1039.3885,378
1039.5712,390
1039.7539,401
1039.9365,409
1040.1191,419
1040.3018,414
1040.4844,421
1040.667,432
1040.8496,422
1041.0321,409
1041.2147,396
1041.3972,386
1041.5797,387
1041.7622,377
1041.9447,381
1042.1271,378
1042.3096,378
1042.4919,381
1042.6743,382
1042.8567,387
1043.0391,384
1043.2214,379
1043.4038,384
1043.5861,384
1043.7684,387
1043.9507,392
1044.1329,387
1044.3152,389
1044.4974,384
1044.6797,381
1044.8618,384
1045.0439,384
1045.2262,393
1045.4083,379
1045.5905,386
1045.7726,387
1045.9546,385
1046.1367,385
1046.3187,384
1046.5007,390
1046.6829,387
1046.8649,394
1047.0468,390
1047.2288,387
1047.4108,394
1047.5927,390
