Date and Time:                Wed Dec 4 17:49:15.773 2024
Software Version:             4.32.30091.0
Temperature (C):              -80
Model:                        DU420_OE
Data Type:                    Counts
Acquisition Mode:             Single Scan
Trigger Mode:                 Internal
Exposure Time (secs):         100
Readout Mode:                 Full Vertical Binning
Horizontal binning:           1
Shutter Mode:                 Fully AUTO
TTL level:                    High
Time to open:                 10 ms
Time to close:                0 ms
Extended Data Range:          off
Horizontally flipped:         false
Vertical Shift Speed (usecs): 32.25
Pixel Readout Time (usecs):   10
Serial Number:                CCD-28590
Pre-Amplifier Gain:           1.7x
Spurious Noise Filter Mode:   No Filter
Photon counted:               false
Data Averaging Filter Mode:   No Filter
KY193i:
Serial Number:                KY-4498
Wavelength (nm):              1023.66
Grating Groove Density (l/mm):600
Grating Blaze:                1000nm



926.90875,253
927.10028,250
927.29187,251
927.4834,251
927.67499,250
927.86652,254
928.05804,253
928.24957,256
928.44104,256
928.63257,254
928.8241,257
929.01556,253
929.20709,255
929.39856,253
929.59003,254
929.78149,253
929.97296,255
930.16443,256
930.35583,256
930.5473,257
930.73871,256
930.93018,260
931.12158,256
931.31299,255
931.50439,259
931.6958,257
931.88721,256
932.07855,259
932.26996,259
932.4613,257
932.65265,257
932.84399,256
933.0354,259
933.22668,256
933.41803,256
933.60938,258
933.80066,255
933.992,263
934.18329,259
934.37457,259
934.56586,264
934.75714,262
934.94843,258
935.13971,259
935.33099,258
935.52222,259
935.71344,258
935.90472,259
936.09595,261
936.28717,259
936.47839,258
936.66956,258
936.86078,260
937.05194,262
937.24316,261
937.43433,261
937.62549,263
937.81665,260
938.00781,262
938.19897,263
938.39014,262
938.58124,263
938.77234,267
938.9635,262
939.1546,261
939.3457,262
939.5368,265
939.72791,264
939.91895,268
940.11005,266
940.30109,264
940.49213,271
940.68323,264
940.87427,265
941.06525,265
941.25629,267
941.44733,268
941.63831,268
941.82935,264
942.02032,268
942.2113,270
942.40228,268
942.59326,265
942.78424,268
942.97516,265
943.16614,269
943.35706,265
943.54803,269
943.73895,273
943.92987,272
944.12079,275
944.31165,268
944.50256,274
944.69342,273
944.88434,273
945.0752,271
945.26605,273
945.45691,275
945.64777,276
945.83856,273
946.02942,275
946.22021,273
946.41107,278
946.60187,277
946.79266,278
946.98346,281
947.17426,278
947.36499,282
947.55579,283
947.74652,280
947.93726,283
948.12799,288
948.31873,283
948.50946,284
948.7002,284
948.89093,288
949.0816,289
949.27228,285
949.46301,288
949.65369,286
949.8443,290
950.03497,292
950.22565,290
950.41626,292
950.60693,293
950.79755,290
950.98816,294
951.17877,297
951.36938,298
951.56,299
951.75055,302
951.94116,303
952.13171,303
952.32227,306
952.51282,300
952.70337,306
952.89392,307
953.08441,308
953.27496,312
953.46545,315
953.65594,307
953.84644,313
954.03693,317
954.22742,318
954.41791,316
954.60834,329
954.79883,325
954.98926,323
955.17969,330
955.37012,336
955.56055,335
955.75092,331
955.94135,334
956.13171,344
956.32208,341
956.51251,349
956.70288,350
956.89319,347
957.08356,352
957.27393,357
957.46423,359
957.65454,363
957.84485,368
958.03516,364
958.22546,368
958.41577,373
958.60602,377
958.79633,385
958.98657,371
959.17682,375
959.36707,377
959.55731,378
959.74756,387
959.93774,380
960.12799,388
960.31818,388
960.50836,387
960.69855,387
960.88873,379
961.07892,374
961.26904,372
961.45923,380
961.64935,374
961.83948,375
962.0296,376
962.21973,377
962.40979,371
962.59991,371
962.78998,378
962.9801,374
963.17017,379
963.36023,377
963.55023,379
963.7403,369
963.9303,373
964.12036,372
964.31036,380
964.50037,383
964.69037,367
964.88037,373
965.07031,370
965.26031,369
965.45026,364
965.6402,371
965.83014,380
966.02008,372
966.21002,378
966.3999,370
966.58984,373
966.77972,379
966.9696,376
967.15948,374
967.34937,369
967.53925,371
967.72906,369
967.91895,374
968.10876,379
968.29858,372
968.4884,379
968.67822,389
968.86798,385
969.0578,388
969.24756,388
969.43732,389
969.62708,395
969.81683,398
970.00659,402
970.19629,402
970.38599,411
970.57574,411
970.76544,421
970.95514,417
971.14478,428
971.33447,415
971.52417,432
971.71381,435
971.90344,437
972.09308,452
972.28271,451
972.47235,462
972.66193,460
972.8515,464
973.04114,465
973.23071,466
973.42029,471
973.6098,480
973.79938,476
973.98889,477
974.17847,480
974.36798,484
974.5575,487
974.74701,498
974.93646,492
975.12598,500
975.31543,497
975.50488,488
975.69434,512
975.88379,502
976.07324,509
976.26263,499
976.45209,520
976.64148,520
976.83087,523
977.02026,506
977.20966,516
977.39899,507
977.58838,535
977.77771,524
977.96704,525
978.15637,532
978.3457,535
978.53497,545
978.7243,546
978.91357,534
979.10284,543
979.29211,542
979.48138,550
979.67065,550
979.85986,546
980.04913,544
980.23834,542
980.42755,539
980.61676,553
980.80591,550
980.99512,559
981.18427,545
981.37341,555
981.56256,571
981.75171,561
981.94086,570
982.12994,558
982.31909,563
982.50818,564
982.69727,581
982.88635,575
983.07544,574
983.26447,571
983.45355,574
983.64258,582
983.8316,578
984.02063,589
984.20959,582
984.39862,592
984.58759,587
984.77661,596
984.96558,593
985.15448,595
985.34344,601
985.53241,617
985.72131,601
985.91022,605
986.09912,624
986.28802,639
986.47693,646
986.66577,636
986.85468,638
987.04352,629
987.23236,639
987.4212,663
987.61005,672
987.79883,660
987.98761,657
988.17645,675
988.36523,669
988.55396,670
988.74274,682
988.93152,692
989.12024,674
989.30896,675
989.49768,689
989.6864,690
989.87506,677
990.06378,688
990.25244,700
990.4411,720
990.62976,694
990.81842,736
991.00708,749
991.19568,751
991.38428,743
991.57288,748
991.76147,749
991.95007,733
992.13867,745
992.32721,755
992.51575,751
992.70428,744
992.89282,737
993.08136,743
993.26984,728
993.45837,743
993.64685,746
993.83533,724
994.0238,718
994.21222,724
994.4007,729
994.58911,714
994.77753,705
994.96594,716
995.15436,713
995.34271,707
995.53113,707
995.71948,678
995.90784,663
996.09619,680
996.28455,655
996.47284,640
996.66119,624
996.84949,613
997.03778,595
997.22607,583
997.41431,580
997.6026,563
997.79083,546
997.97906,549
998.1673,528
998.35553,528
998.5437,525
998.73193,501
998.9201,488
999.10828,492
999.29645,475
999.48456,484
999.67273,467
999.86084,454
1000.049,448
1000.2371,449
1000.4252,442
1000.6132,445
1000.8013,449
1000.9894,432
1001.1774,445
1001.3655,435
1001.5535,427
1001.7415,426
1001.9295,421
1002.1175,417
1002.3055,429
1002.4935,423
1002.6814,417
1002.8694,422
1003.0573,411
1003.2452,413
1003.4332,401
1003.621,403
1003.809,405
1003.9968,391
1004.1847,384
1004.3726,375
1004.5604,385
1004.7482,379
1004.9361,375
1005.1239,371
1005.3117,374
1005.4995,364
1005.6873,348
1005.875,341
1006.0628,341
1006.2505,332
1006.4382,328
1006.626,319
1006.8137,317
1007.0014,300
1007.1891,303
1007.3768,287
1007.5644,278
1007.7521,274
1007.9397,264
1008.1273,256
1008.3149,249
1008.5026,249
1008.6902,247
1008.8777,245
1009.0653,244
1009.2529,245
1009.4404,247
1009.628,243
1009.8155,246
1010.003,245
1010.1905,244
1010.378,245
1010.5655,244
1010.7529,244
1010.9404,245
1011.1279,246
1011.3153,245
1011.5027,247
1011.6901,246
1011.8775,246
1012.0649,245
1012.2523,244
1012.4396,244
1012.627,245
1012.8143,248
1013.0016,244
1013.189,243
1013.3763,244
1013.5636,244
1013.7509,245
1013.9381,243
1014.1254,244
1014.3126,246
1014.4998,243
1014.6871,244
1014.8743,246
1015.0615,246
1015.2487,246
1015.4359,245
1015.623,245
1015.8101,242
1015.9973,246
1016.1844,244
1016.3715,245
1016.5586,245
1016.7457,244
1016.9328,248
1017.1198,247
1017.3069,248
1017.494,245
1017.681,244
1017.868,245
1018.055,247
1018.2419,243
1018.429,246
1018.6159,246
1018.8029,246
1018.9898,245
1019.1768,244
1019.3636,245
1019.5506,245
1019.7375,244
1019.9244,244
1020.1112,244
1020.2981,245
1020.4849,244
1020.6718,245
1020.8586,244
1021.0454,243
1021.2322,246
1021.4189,245
1021.6057,246
1021.7925,245
1021.9792,247
1022.166,245
1022.3527,249
1022.5394,245
1022.7261,244
1022.9128,244
1023.0995,245
1023.2861,246
1023.4728,243
1023.6594,246
1023.846,244
1024.0326,245
1024.2192,248
1024.4059,246
1024.5924,247
1024.7789,247
1024.9655,249
1025.1521,249
1025.3386,246
1025.525,248
1025.7115,248
1025.8981,246
1026.0845,250
1026.271,247
1026.4574,247
1026.6439,250
1026.8303,247
1027.0167,249
1027.2031,251
1027.3895,253
1027.5758,259
1027.7622,266
1027.9486,267
1028.1349,273
1028.3212,280
1028.5076,291
1028.6938,308
1028.8801,350
1029.0664,361
1029.2527,318
1029.4388,276
1029.6251,262
1029.8113,254
1029.9976,252
1030.1837,248
1030.3699,249
1030.556,247
1030.7422,247
1030.9283,244
1031.1145,245
1031.3007,246
1031.4867,246
1031.6729,248
1031.8589,249
1032.0449,244
1032.231,248
1032.417,246
1032.603,248
1032.7891,247
1032.9751,245
1033.161,244
1033.347,247
1033.533,247
1033.719,246
1033.9049,245
1034.0908,245
1034.2767,243
1034.4626,247
1034.6484,246
1034.8344,246
1035.0203,244
1035.2061,248
1035.3918,245
1035.5778,245
1035.7635,244
1035.9493,246
1036.1351,244
1036.3208,243
1036.5066,244
1036.6924,246
1036.8781,246
1037.0637,245
1037.2495,248
1037.4352,248
1037.6208,243
1037.8065,245
1037.9922,244
1038.1777,246
1038.3634,246
1038.549,244
1038.7346,247
1038.9202,245
1039.1057,244
1039.2913,244
1039.4768,245
1039.6624,247
1039.8479,243
1040.0333,243
1040.2189,246
1040.4043,245
1040.5897,244
1040.7753,245
1040.9607,245
1041.1461,243
1041.3314,245
1041.5168,246
1041.7023,245
1041.8876,244
1042.073,245
1042.2583,245
1042.4436,244
1042.6289,246
1042.8142,245
1042.9995,244
1043.1848,244
1043.37,246
1043.5553,247
1043.7405,244
1043.9257,246
1044.111,244
1044.2961,245
1044.4813,245
1044.6664,246
1044.8516,247
1045.0367,244
1045.2218,245
1045.407,245
1045.592,244
1045.7771,246
1045.9622,245
1046.1472,244
1046.3323,245
1046.5173,247
1046.7023,246
1046.8873,246
1047.0723,246
1047.2572,246
1047.4421,245
1047.6271,245
1047.812,246
1047.9969,246
1048.1819,243
1048.3667,245
1048.5516,246
1048.7365,246
1048.9213,247
1049.1062,247
1049.291,245
1049.4757,244
1049.6605,242
1049.8453,245
1050.03,247
1050.2148,245
1050.3995,246
1050.5842,246
1050.7689,243
1050.9536,245
1051.1383,243
1051.323,245
1051.5077,243
1051.6923,246
1051.877,244
1052.0615,246
1052.2461,247
1052.4307,246
1052.6152,245
1052.7998,247
1052.9843,243
1053.1688,245
1053.3534,245
1053.5378,245
1053.7223,244
1053.9067,246
1054.0912,244
1054.2756,245
1054.4601,246
1054.6445,248
1054.8289,246
1055.0133,245
1055.1976,247
1055.382,246
1055.5663,246
1055.7506,247
1055.9349,247
1056.1193,244
1056.3035,248
1056.4878,247
1056.672,253
1056.8562,426
1057.0404,300
1057.2246,250
1057.4088,245
1057.593,246
1057.7772,242
1057.9613,243
1058.1455,248
1058.3296,243
1058.5137,246
1058.6978,244
1058.8818,246
1059.0659,245
1059.25,247
1059.434,246
1059.618,248
1059.802,247
1059.986,243
1060.17,247
1060.3539,246
1060.5378,245
1060.7218,246
1060.9058,247
1061.0896,245
1061.2736,247
1061.4574,248
1061.6412,248
1061.8251,244
1062.0089,249
1062.1927,251
1062.3765,254
1062.5603,257
1062.744,262
1062.9279,263
1063.1116,267
1063.2953,269
1063.479,284
1063.6627,310
1063.8464,309
1064.03,283
1064.2137,269
1064.3973,257
1064.5809,249
1064.7645,250
1064.9481,248
1065.1317,247
1065.3153,248
1065.4988,248
1065.6824,246
1065.8658,246
1066.0493,248
1066.2329,245
1066.4164,247
1066.5997,245
1066.7832,246
1066.9667,247
1067.15,243
1067.3335,246
1067.5168,247
1067.7002,247
1067.8835,245
1068.0669,246
1068.2502,246
1068.4335,245
1068.6168,244
1068.8,248
1068.9834,248
1069.1666,246
1069.3499,245
1069.5331,246
1069.7162,250
1069.8994,245
1070.0826,243
1070.2657,244
1070.4489,245
1070.6321,244
1070.8152,246
1070.9982,244
1071.1813,245
1071.3644,245
1071.5474,242
1071.7305,243
1071.9135,242
1072.0964,247
1072.2794,242
1072.4624,245
1072.6454,244
1072.8284,246
1073.0112,244
1073.1942,246
1073.3771,248
1073.5599,245
1073.7428,245
1073.9257,246
1074.1085,247
1074.2913,244
1074.4741,243
1074.6569,243
1074.8397,247
1075.0225,246
1075.2052,243
1075.3879,245
1075.5706,245
1075.7533,244
1075.9359,245
1076.1187,246
1076.3013,246
1076.4839,245
1076.6665,244
1076.8491,244
1077.0317,244
1077.2142,246
1077.3969,244
1077.5793,244
1077.762,244
1077.9445,245
1078.127,242
1078.3093,242
1078.4918,244
1078.6743,244
1078.8567,245
1079.0392,243
1079.2216,246
1079.4039,245
1079.5863,245
1079.7687,245
1079.9509,244
1080.1333,245
1080.3156,247
1080.4979,245
1080.6802,245
1080.8624,247
1081.0447,245
1081.2269,244
1081.4091,244
1081.5913,243
1081.7734,246
1081.9556,246
1082.1377,247
1082.3198,246
1082.502,245
1082.6841,245
1082.8662,246
1083.0482,246
1083.2303,242
1083.4124,243
1083.5944,247
1083.7764,244
1083.9584,245
1084.1403,245
1084.3223,246
1084.5042,244
1084.6862,246
1084.868,244
1085.0499,249
1085.2318,245
1085.4137,246
1085.5955,246
1085.7773,246
1085.9591,245
1086.1409,244
1086.3226,248
1086.5044,245
1086.6862,245
1086.8679,243
1087.0497,241
1087.2313,244
1087.413,245
1087.5947,242
1087.7764,247
1087.958,245
1088.1395,243
1088.3212,243
1088.5027,244
1088.6843,246
1088.8658,246
1089.0474,244
1089.2289,243
1089.4104,244
1089.5919,244
1089.7733,246
1089.9548,247
1090.1362,246
1090.3176,244
1090.499,245
1090.6804,244
1090.8618,243
1091.0432,246
1091.2245,243
1091.4059,244
1091.5872,243
1091.7684,243
1091.9497,250
1092.131,246
1092.3123,243
1092.4934,245
1092.6747,243
1092.8558,244
1093.037,245
1093.2181,243
1093.3993,245
1093.5804,243
1093.7615,247
1093.9426,245
1094.1237,244
1094.3047,246
1094.4857,246
1094.6667,245
1094.8478,245
1095.0288,243
1095.2097,247
1095.3907,244
1095.5717,245
1095.7526,245
1095.9335,248
1096.1144,245
1096.2953,244
1096.4761,245
1096.657,246
1096.8378,244
1097.0186,246
1097.1993,246
1097.3801,243
1097.5609,245
1097.7416,244
1097.9224,246
1098.103,245
1098.2837,245
1098.4644,246
1098.645,246
1098.8257,248
1099.0063,243
1099.1869,244
1099.3676,244
1099.5481,246
1099.7286,246
1099.9092,245
1100.0897,243
1100.2701,246
1100.4507,244
1100.6311,244
1100.8116,244
1100.9921,246
1101.1725,245
1101.3529,244
1101.5332,245
1101.7136,245
1101.8939,244
1102.0742,245
1102.2546,243
1102.4349,245
1102.6151,246
1102.7954,244
1102.9757,246
1103.1559,245
1103.3361,246
1103.5164,245
1103.6965,245
1103.8767,245
1104.0568,247
1104.2369,245
1104.417,242
1104.5972,245
1104.7772,244
1104.9573,245
1105.1373,246
1105.3173,246
1105.4973,243
1105.6772,245
1105.8573,246
1106.0372,244
1106.2172,244
1106.3971,244
1106.577,243
1106.7568,245
1106.9368,245
1107.1166,248
1107.2964,243
1107.4762,244
1107.656,245
1107.8358,246
1108.0156,243
1108.1953,244
1108.375,245
1108.5547,242
1108.7345,244
1108.9141,246
1109.0938,245
1109.2734,243
1109.453,245
1109.6327,245
1109.8123,245
1109.9918,243
1110.1714,242
1110.3508,243
1110.5304,243
1110.7098,244
1110.8894,249
1111.0688,246
1111.2483,245
1111.4277,246
1111.6072,242
1111.7865,243
1111.9659,244
1112.1453,243
1112.3246,242
1112.5039,244
1112.6832,243
1112.8625,244
1113.0417,244
1113.2211,242
1113.4003,242
1113.5795,242
1113.7587,243
1113.9379,246
1114.1171,244
1114.2961,245
1114.4753,322
1114.6544,368
1114.8335,250
1115.0126,244
1115.1917,245
1115.3706,245
1115.5497,244
1115.7286,245
1115.9077,245
1116.0867,245
1116.2656,252
1116.4445,244
1116.6234,247
1116.8024,245
1116.9812,246
1117.16,246
1117.3389,247
