Date and Time:                Wed Dec 4 17:56:33.301 2024
Software Version:             4.32.30091.0
Temperature (C):              -80
Model:                        DU420_OE
Data Type:                    Counts
Acquisition Mode:             Single Scan
Trigger Mode:                 Internal
Exposure Time (secs):         100
Readout Mode:                 Full Vertical Binning
Horizontal binning:           1
Shutter Mode:                 Fully AUTO
TTL level:                    High
Time to open:                 10 ms
Time to close:                0 ms
Extended Data Range:          off
Horizontally flipped:         false
Vertical Shift Speed (usecs): 32.25
Pixel Readout Time (usecs):   10
Serial Number:                CCD-28590
Pre-Amplifier Gain:           1.7x
Spurious Noise Filter Mode:   No Filter
Photon counted:               false
Data Averaging Filter Mode:   No Filter
KY193i:
Serial Number:                KY-4498
Wavelength (nm):              1023.66
Grating Groove Density (l/mm):600
Grating Blaze:                1000nm



926.90875,256
927.10028,253
927.29187,256
927.4834,259
927.67499,253
927.86652,258
928.05804,257
928.24957,258
928.44104,257
928.63257,255
928.8241,258
929.01556,259
929.20709,258
929.39856,258
929.59003,262
929.78149,261
929.97296,261
930.16443,260
930.35583,262
930.5473,257
930.73871,261
930.93018,267
931.12158,262
931.31299,262
931.50439,263
931.6958,260
931.88721,262
932.07855,259
932.26996,257
932.4613,264
932.65265,258
932.84399,260
933.0354,262
933.22668,266
933.41803,264
933.60938,261
933.80066,265
933.992,266
934.18329,263
934.37457,262
934.56586,263
934.75714,265
934.94843,269
935.13971,262
935.33099,266
935.52222,266
935.71344,266
935.90472,265
936.09595,266
936.28717,266
936.47839,264
936.66956,266
936.86078,268
937.05194,269
937.24316,270
937.43433,548
937.62549,694
937.81665,457
938.00781,505
938.19897,671
938.39014,501
938.58124,449
938.77234,405
938.9635,438
939.1546,350
939.3457,269
939.5368,271
939.72791,266
939.91895,269
940.11005,274
940.30109,272
940.49213,272
940.68323,270
940.87427,274
941.06525,273
941.25629,275
941.44733,273
941.63831,273
941.82935,274
942.02032,273
942.2113,274
942.40228,276
942.59326,275
942.78424,273
942.97516,274
943.16614,274
943.35706,281
943.54803,278
943.73895,279
943.92987,282
944.12079,280
944.31165,280
944.50256,285
944.69342,287
944.88434,285
945.0752,281
945.26605,291
945.45691,288
945.64777,287
945.83856,289
946.02942,290
946.22021,287
946.41107,290
946.60187,286
946.79266,289
946.98346,293
947.17426,296
947.36499,292
947.55579,294
947.74652,290
947.93726,294
948.12799,292
948.31873,297
948.50946,300
948.7002,302
948.89093,302
949.0816,303
949.27228,302
949.46301,300
949.65369,304
949.8443,307
950.03497,300
950.22565,311
950.41626,311
950.60693,308
950.79755,317
950.98816,311
951.17877,310
951.36938,315
951.56,318
951.75055,318
951.94116,323
952.13171,324
952.32227,325
952.51282,333
952.70337,325
952.89392,333
953.08441,333
953.27496,332
953.46545,330
953.65594,335
953.84644,339
954.03693,341
954.22742,344
954.41791,352
954.60834,351
954.79883,352
954.98926,356
955.17969,364
955.37012,359
955.56055,363
955.75092,366
955.94135,370
956.13171,376
956.32208,391
956.51251,385
956.70288,390
956.89319,391
957.08356,388
957.27393,386
957.46423,399
957.65454,401
957.84485,406
958.03516,407
958.22546,419
958.41577,411
958.60602,425
958.79633,407
958.98657,421
959.17682,418
959.36707,418
959.55731,427
959.74756,427
959.93774,425
960.12799,425
960.31818,430
960.50836,432
960.69855,425
960.88873,427
961.07892,428
961.26904,421
961.45923,424
961.64935,421
961.83948,423
962.0296,427
962.21973,415
962.40979,423
962.59991,416
962.78998,421
962.9801,424
963.17017,426
963.36023,416
963.55023,422
963.7403,422
963.9303,420
964.12036,413
964.31036,414
964.50037,426
964.69037,424
964.88037,424
965.07031,410
965.26031,417
965.45026,415
965.6402,419
965.83014,420
966.02008,419
966.21002,421
966.3999,410
966.58984,425
966.77972,422
966.9696,418
967.15948,415
967.34937,408
967.53925,422
967.72906,414
967.91895,415
968.10876,423
968.29858,412
968.4884,439
968.67822,431
968.86798,438
969.0578,440
969.24756,436
969.43732,436
969.62708,433
969.81683,458
970.00659,455
970.19629,452
970.38599,461
970.57574,467
970.76544,470
970.95514,472
971.14478,475
971.33447,482
971.52417,499
971.71381,491
971.90344,496
972.09308,511
972.28271,525
972.47235,527
972.66193,531
972.8515,520
973.04114,524
973.23071,533
973.42029,542
973.6098,549
973.79938,550
973.98889,551
974.17847,537
974.36798,549
974.5575,558
974.74701,569
974.93646,572
975.12598,563
975.31543,574
975.50488,571
975.69434,572
975.88379,570
976.07324,568
976.26263,579
976.45209,584
976.64148,602
976.83087,600
977.02026,584
977.20966,589
977.39899,603
977.58838,602
977.77771,608
977.96704,603
978.15637,602
978.3457,624
978.53497,618
978.7243,613
978.91357,612
979.10284,609
979.29211,620
979.48138,614
979.67065,622
979.85986,615
980.04913,615
980.23834,618
980.42755,615
980.61676,632
980.80591,628
980.99512,625
981.18427,632
981.37341,626
981.56256,640
981.75171,640
981.94086,641
982.12994,634
982.31909,629
982.50818,644
982.69727,658
982.88635,650
983.07544,644
983.26447,649
983.45355,640
983.64258,653
983.8316,666
984.02063,659
984.20959,652
984.39862,659
984.58759,676
984.77661,673
984.96558,672
985.15448,676
985.34344,679
985.53241,695
985.72131,688
985.91022,682
986.09912,705
986.28802,703
986.47693,721
986.66577,710
986.85468,705
987.04352,699
987.23236,727
987.4212,746
987.61005,734
987.79883,736
987.98761,731
988.17645,755
988.36523,736
988.55396,768
988.74274,743
988.93152,764
989.12024,767
989.30896,763
989.49768,765
989.6864,761
989.87506,771
990.06378,781
990.25244,775
990.4411,781
990.62976,792
990.81842,805
991.00708,814
991.19568,819
991.38428,819
991.57288,819
991.76147,812
991.95007,799
992.13867,823
992.32721,820
992.51575,815
992.70428,822
992.89282,810
993.08136,802
993.26984,793
993.45837,813
993.64685,796
993.83533,796
994.0238,781
994.21222,766
994.4007,790
994.58911,792
994.77753,784
994.96594,787
995.15436,778
995.34271,748
995.53113,756
995.71948,763
995.90784,718
996.09619,724
996.28455,714
996.47284,707
996.66119,693
996.84949,656
997.03778,637
997.22607,625
997.41431,600
997.6026,592
997.79083,585
997.97906,580
998.1673,559
998.35553,548
998.5437,557
998.73193,527
998.9201,528
999.10828,518
999.29645,505
999.48456,504
999.67273,498
999.86084,480
1000.049,480
1000.2371,480
1000.4252,470
1000.6132,458
1000.8013,462
1000.9894,459
1001.1774,457
1001.3655,455
1001.5535,447
1001.7415,445
1001.9295,437
1002.1175,440
1002.3055,440
1002.4935,449
1002.6814,441
1002.8694,440
1003.0573,433
1003.2452,421
1003.4332,422
1003.621,416
1003.809,419
1003.9968,408
1004.1847,403
1004.3726,396
1004.5604,404
1004.7482,664
1004.9361,468
1005.1239,385
1005.3117,379
1005.4995,381
1005.6873,371
1005.875,361
1006.0628,345
1006.2505,345
1006.4382,335
1006.626,323
1006.8137,312
1007.0014,311
1007.1891,302
1007.3768,290
1007.5644,286
1007.7521,272
1007.9397,262
1008.1273,257
1008.3149,251
1008.5026,251
1008.6902,247
1008.8777,246
1009.0653,247
1009.2529,248
1009.4404,247
1009.628,244
1009.8155,245
1010.003,245
1010.1905,246
1010.378,246
1010.5655,246
1010.7529,246
1010.9404,245
1011.1279,246
1011.3153,246
1011.5027,243
1011.6901,245
1011.8775,246
1012.0649,245
1012.2523,246
1012.4396,245
1012.627,246
1012.8143,243
1013.0016,244
1013.189,246
1013.3763,245
1013.5636,246
1013.7509,247
1013.9381,244
1014.1254,244
1014.3126,247
1014.4998,245
1014.6871,247
1014.8743,246
1015.0615,247
1015.2487,246
1015.4359,245
1015.623,245
1015.8101,245
1015.9973,244
1016.1844,244
1016.3715,245
1016.5586,245
1016.7457,244
1016.9328,245
1017.1198,244
1017.3069,247
1017.494,243
1017.681,243
1017.868,242
1018.055,246
1018.2419,245
1018.429,244
1018.6159,245
1018.8029,243
1018.9898,247
1019.1768,242
1019.3636,244
1019.5506,247
1019.7375,244
1019.9244,243
1020.1112,246
1020.2981,245
1020.4849,244
1020.6718,244
1020.8586,247
1021.0454,245
1021.2322,247
1021.4189,243
1021.6057,246
1021.7925,243
1021.9792,247
1022.166,246
1022.3527,244
1022.5394,246
1022.7261,248
1022.9128,246
1023.0995,245
1023.2861,247
1023.4728,247
1023.6594,248
1023.846,244
1024.0326,245
1024.2192,246
1024.4059,246
1024.5924,247
1024.7789,245
1024.9655,248
1025.1521,251
1025.3386,246
1025.525,245
1025.7115,246
1025.8981,247
1026.0845,246
1026.271,247
1026.4574,248
1026.6439,248
1026.8303,248
1027.0167,251
1027.2031,250
1027.3895,261
1027.5758,272
1027.7622,272
1027.9486,272
1028.1349,273
1028.3212,284
1028.5076,297
1028.6938,331
1028.8801,390
1029.0664,411
1029.2527,341
1029.4388,288
1029.6251,265
1029.8113,255
1029.9976,247
1030.1837,249
1030.3699,246
1030.556,248
1030.7422,269
1030.9283,404
1031.1145,285
1031.3007,250
1031.4867,245
1031.6729,250
1031.8589,244
1032.0449,247
1032.231,247
1032.417,247
1032.603,245
1032.7891,245
1032.9751,247
1033.161,245
1033.347,246
1033.533,246
1033.719,251
1033.9049,320
1034.0908,266
1034.2767,246
1034.4626,245
1034.6484,248
1034.8344,243
1035.0203,244
1035.2061,247
1035.3918,246
1035.5778,247
1035.7635,246
1035.9493,246
1036.1351,247
1036.3208,245
1036.5066,246
1036.6924,246
1036.8781,246
1037.0637,243
1037.2495,243
1037.4352,247
1037.6208,246
1037.8065,244
1037.9922,246
1038.1777,246
1038.3634,246
1038.549,243
1038.7346,247
1038.9202,247
1039.1057,246
1039.2913,243
1039.4768,244
1039.6624,246
1039.8479,247
1040.0333,245
1040.2189,244
1040.4043,245
1040.5897,244
1040.7753,245
1040.9607,245
1041.1461,247
1041.3314,247
1041.5168,244
1041.7023,246
1041.8876,247
1042.073,248
1042.2583,243
1042.4436,248
1042.6289,246
1042.8142,243
1042.9995,244
1043.1848,245
1043.37,246
1043.5553,246
1043.7405,244
1043.9257,245
1044.111,245
1044.2961,245
1044.4813,246
1044.6664,245
1044.8516,246
1045.0367,243
1045.2218,244
1045.407,247
1045.592,247
1045.7771,247
1045.9622,246
1046.1472,244
1046.3323,246
1046.5173,245
1046.7023,244
1046.8873,246
1047.0723,245
1047.2572,246
1047.4421,246
1047.6271,293
1047.812,416
1047.9969,473
1048.1819,442
1048.3667,266
1048.5516,246
1048.7365,247
1048.9213,246
1049.1062,247
1049.291,243
1049.4757,245
1049.6605,246
1049.8453,247
1050.03,247
1050.2148,244
1050.3995,246
1050.5842,246
1050.7689,245
1050.9536,244
1051.1383,244
1051.323,245
1051.5077,245
1051.6923,247
1051.877,246
1052.0615,246
1052.2461,247
1052.4307,245
1052.6152,245
1052.7998,245
1052.9843,246
1053.1688,247
1053.3534,245
1053.5378,246
1053.7223,246
1053.9067,246
1054.0912,244
1054.2756,246
1054.4601,249
1054.6445,246
1054.8289,243
1055.0133,249
1055.1976,246
1055.382,244
1055.5663,243
1055.7506,246
1055.9349,247
1056.1193,246
1056.3035,246
1056.4878,245
1056.672,243
1056.8562,245
1057.0404,247
1057.2246,247
1057.4088,248
1057.593,245
1057.7772,245
1057.9613,245
1058.1455,246
1058.3296,245
1058.5137,247
1058.6978,243
1058.8818,247
1059.0659,248
1059.25,243
1059.434,248
1059.618,246
1059.802,246
1059.986,243
1060.17,244
1060.3539,246
1060.5378,246
1060.7218,247
1060.9058,247
1061.0896,243
1061.2736,246
1061.4574,246
1061.6412,248
1061.8251,249
1062.0089,247
1062.1927,249
1062.3765,256
1062.5603,252
1062.744,260
1062.9279,263
1063.1116,267
1063.2953,272
1063.479,283
1063.6627,310
1063.8464,309
1064.03,287
1064.2137,265
1064.3973,257
1064.5809,249
1064.7645,248
1064.9481,249
1065.1317,246
1065.3153,249
1065.4988,248
1065.6824,247
1065.8658,248
1066.0493,247
1066.2329,246
1066.4164,245
1066.5997,388
1066.7832,364
1066.9667,252
1067.15,246
1067.3335,243
1067.5168,245
1067.7002,248
1067.8835,645
1068.0669,446
1068.2502,271
1068.4335,245
1068.6168,245
1068.8,247
1068.9834,245
1069.1666,246
1069.3499,246
1069.5331,245
1069.7162,244
1069.8994,245
1070.0826,246
1070.2657,245
1070.4489,244
1070.6321,244
1070.8152,246
1070.9982,245
1071.1813,244
1071.3644,244
1071.5474,243
1071.7305,244
1071.9135,241
1072.0964,246
1072.2794,243
1072.4624,243
1072.6454,245
1072.8284,247
1073.0112,247
1073.1942,248
1073.3771,243
1073.5599,243
1073.7428,244
1073.9257,245
1074.1085,242
1074.2913,243
1074.4741,244
1074.6569,244
1074.8397,247
1075.0225,243
1075.2052,244
1075.3879,243
1075.5706,244
1075.7533,243
1075.9359,247
1076.1187,244
1076.3013,244
1076.4839,243
1076.6665,245
1076.8491,245
1077.0317,244
1077.2142,243
1077.3969,244
1077.5793,244
1077.762,246
1077.9445,243
1078.127,246
1078.3093,243
1078.4918,246
1078.6743,245
1078.8567,244
1079.0392,245
1079.2216,246
1079.4039,244
1079.5863,243
1079.7687,242
1079.9509,245
1080.1333,245
1080.3156,243
1080.4979,243
1080.6802,245
1080.8624,245
1081.0447,245
1081.2269,243
1081.4091,246
1081.5913,245
1081.7734,246
1081.9556,244
1082.1377,244
1082.3198,248
1082.502,246
1082.6841,243
1082.8662,245
1083.0482,243
1083.2303,245
1083.4124,243
1083.5944,245
1083.7764,245
1083.9584,244
1084.1403,242
1084.3223,246
1084.5042,244
1084.6862,245
1084.868,245
1085.0499,243
1085.2318,244
1085.4137,245
1085.5955,246
1085.7773,246
1085.9591,244
1086.1409,244
1086.3226,245
1086.5044,246
1086.6862,245
1086.8679,245
1087.0497,242
1087.2313,244
1087.413,244
1087.5947,247
1087.7764,247
1087.958,243
1088.1395,245
1088.3212,243
1088.5027,246
1088.6843,243
1088.8658,245
1089.0474,246
1089.2289,246
1089.4104,246
1089.5919,242
1089.7733,243
1089.9548,245
1090.1362,245
1090.3176,243
1090.499,247
1090.6804,242
1090.8618,244
1091.0432,246
1091.2245,244
1091.4059,243
1091.5872,243
1091.7684,245
1091.9497,248
1092.131,245
1092.3123,247
1092.4934,247
1092.6747,243
1092.8558,245
1093.037,242
1093.2181,246
1093.3993,244
1093.5804,243
1093.7615,244
1093.9426,243
1094.1237,244
1094.3047,247
1094.4857,245
1094.6667,244
1094.8478,243
1095.0288,244
1095.2097,247
1095.3907,248
1095.5717,246
1095.7526,244
1095.9335,246
1096.1144,243
1096.2953,245
1096.4761,246
1096.657,245
1096.8378,245
1097.0186,247
1097.1993,245
1097.3801,247
1097.5609,243
1097.7416,245
1097.9224,243
1098.103,245
1098.2837,244
1098.4644,245
1098.645,246
1098.8257,245
1099.0063,241
1099.1869,244
1099.3676,243
1099.5481,244
1099.7286,246
1099.9092,243
1100.0897,243
1100.2701,244
1100.4507,245
1100.6311,245
1100.8116,243
1100.9921,245
1101.1725,244
1101.3529,243
1101.5332,244
1101.7136,244
1101.8939,249
1102.0742,244
1102.2546,245
1102.4349,245
1102.6151,247
1102.7954,246
1102.9757,243
1103.1559,245
1103.3361,245
1103.5164,243
1103.6965,243
1103.8767,247
1104.0568,246
1104.2369,246
1104.417,241
1104.5972,244
1104.7772,242
1104.9573,244
1105.1373,245
1105.3173,244
1105.4973,243
1105.6772,242
1105.8573,246
1106.0372,244
1106.2172,243
1106.3971,242
1106.577,247
1106.7568,246
1106.9368,245
1107.1166,245
1107.2964,243
1107.4762,243
1107.656,242
1107.8358,245
1108.0156,244
1108.1953,247
1108.375,243
1108.5547,245
1108.7345,242
1108.9141,245
1109.0938,244
1109.2734,243
1109.453,245
1109.6327,247
1109.8123,246
1109.9918,244
1110.1714,244
1110.3508,243
1110.5304,243
1110.7098,244
1110.8894,245
1111.0688,245
1111.2483,244
1111.4277,246
1111.6072,243
1111.7865,243
1111.9659,245
1112.1453,244
1112.3246,240
1112.5039,242
1112.6832,243
1112.8625,245
1113.0417,245
1113.2211,243
1113.4003,243
1113.5795,243
1113.7587,246
1113.9379,244
1114.1171,244
1114.2961,243
1114.4753,242
1114.6544,247
1114.8335,246
1115.0126,243
1115.1917,243
1115.3706,243
1115.5497,244
1115.7286,245
1115.9077,241
1116.0867,247
1116.2656,248
1116.4445,243
1116.6234,243
1116.8024,245
1116.9812,245
1117.16,247
1117.3389,246
