Date and Time:                Wed Dec 4 17:04:20.317 2024
Software Version:             4.32.30091.0
Temperature (C):              -80
Model:                        DU420_OE
Data Type:                    Counts
Acquisition Mode:             Single Scan
Trigger Mode:                 Internal
Exposure Time (secs):         100
Readout Mode:                 Full Vertical Binning
Horizontal binning:           1
Shutter Mode:                 Fully AUTO
TTL level:                    High
Time to open:                 10 ms
Time to close:                0 ms
Extended Data Range:          off
Horizontally flipped:         false
Vertical Shift Speed (usecs): 32.25
Pixel Readout Time (usecs):   10
Serial Number:                CCD-28590
Pre-Amplifier Gain:           1.7x
Spurious Noise Filter Mode:   No Filter
Photon counted:               false
Data Averaging Filter Mode:   No Filter
KY193i:
Serial Number:                KY-4498
Wavelength (nm):              1023.66
Grating Groove Density (l/mm):600
Grating Blaze:                1000nm



926.90875,247
927.10028,246
927.29187,249
927.4834,249
927.67499,248
927.86652,247
928.05804,248
928.24957,250
928.44104,252
928.63257,252
928.8241,250
929.01556,250
929.20709,251
929.39856,250
929.59003,251
929.78149,248
929.97296,254
930.16443,253
930.35583,255
930.5473,251
930.73871,251
930.93018,253
931.12158,253
931.31299,256
931.50439,250
931.6958,248
931.88721,253
932.07855,254
932.26996,252
932.4613,251
932.65265,251
932.84399,254
933.0354,252
933.22668,255
933.41803,250
933.60938,255
933.80066,252
933.992,254
934.18329,256
934.37457,256
934.56586,257
934.75714,254
934.94843,253
935.13971,253
935.33099,255
935.52222,253
935.71344,254
935.90472,255
936.09595,256
936.28717,256
936.47839,256
936.66956,257
936.86078,257
937.05194,258
937.24316,256
937.43433,257
937.62549,256
937.81665,259
938.00781,256
938.19897,257
938.39014,259
938.58124,258
938.77234,254
938.9635,256
939.1546,257
939.3457,259
939.5368,261
939.72791,257
939.91895,258
940.11005,257
940.30109,258
940.49213,262
940.68323,260
940.87427,259
941.06525,258
941.25629,260
941.44733,261
941.63831,260
941.82935,260
942.02032,264
942.2113,264
942.40228,262
942.59326,263
942.78424,263
942.97516,264
943.16614,263
943.35706,264
943.54803,267
943.73895,263
943.92987,265
944.12079,266
944.31165,267
944.50256,267
944.69342,267
944.88434,264
945.0752,268
945.26605,268
945.45691,266
945.64777,269
945.83856,269
946.02942,267
946.22021,277
946.41107,272
946.60187,278
946.79266,273
946.98346,277
947.17426,273
947.36499,276
947.55579,278
947.74652,275
947.93726,273
948.12799,272
948.31873,279
948.50946,280
948.7002,278
948.89093,283
949.0816,282
949.27228,282
949.46301,278
949.65369,281
949.8443,283
950.03497,286
950.22565,288
950.41626,285
950.60693,290
950.79755,291
950.98816,291
951.17877,288
951.36938,293
951.56,291
951.75055,292
951.94116,299
952.13171,298
952.32227,301
952.51282,295
952.70337,301
952.89392,298
953.08441,305
953.27496,308
953.46545,302
953.65594,310
953.84644,313
954.03693,316
954.22742,317
954.41791,320
954.60834,318
954.79883,320
954.98926,326
955.17969,334
955.37012,335
955.56055,330
955.75092,336
955.94135,347
956.13171,355
956.32208,353
956.51251,356
956.70288,365
956.89319,361
957.08356,367
957.27393,372
957.46423,373
957.65454,388
957.84485,379
958.03516,382
958.22546,392
958.41577,391
958.60602,401
958.79633,400
958.98657,395
959.17682,404
959.36707,403
959.55731,396
959.74756,403
959.93774,401
960.12799,399
960.31818,407
960.50836,399
960.69855,408
960.88873,401
961.07892,397
961.26904,405
961.45923,402
961.64935,395
961.83948,386
962.0296,394
962.21973,383
962.40979,386
962.59991,384
962.78998,379
962.9801,382
963.17017,374
963.36023,374
963.55023,379
963.7403,369
963.9303,374
964.12036,370
964.31036,373
964.50037,373
964.69037,363
964.88037,358
965.07031,371
965.26031,364
965.45026,360
965.6402,364
965.83014,362
966.02008,360
966.21002,359
966.3999,363
966.58984,359
966.77972,367
966.9696,371
967.15948,357
967.34937,353
967.53925,362
967.72906,359
967.91895,355
968.10876,361
968.29858,361
968.4884,363
968.67822,368
968.86798,366
969.0578,362
969.24756,369
969.43732,367
969.62708,375
969.81683,380
970.00659,379
970.19629,380
970.38599,378
970.57574,384
970.76544,393
970.95514,388
971.14478,396
971.33447,389
971.52417,402
971.71381,407
971.90344,412
972.09308,408
972.28271,411
972.47235,418
972.66193,424
972.8515,422
973.04114,416
973.23071,421
973.42029,423
973.6098,427
973.79938,426
973.98889,422
974.17847,427
974.36798,437
974.5575,437
974.74701,437
974.93646,425
975.12598,422
975.31543,427
975.50488,427
975.69434,431
975.88379,437
976.07324,429
976.26263,437
976.45209,440
976.64148,429
976.83087,437
977.02026,432
977.20966,452
977.39899,442
977.58838,449
977.77771,445
977.96704,447
978.15637,451
978.3457,443
978.53497,449
978.7243,449
978.91357,442
979.10284,441
979.29211,451
979.48138,447
979.67065,449
979.85986,448
980.04913,456
980.23834,444
980.42755,453
980.61676,454
980.80591,449
980.99512,441
981.18427,447
981.37341,438
981.56256,453
981.75171,459
981.94086,452
982.12994,462
982.31909,451
982.50818,460
982.69727,664
982.88635,522
983.07544,455
983.26447,451
983.45355,449
983.64258,462
983.8316,447
984.02063,453
984.20959,447
984.39862,549
984.58759,705
984.77661,486
984.96558,475
985.15448,471
985.34344,458
985.53241,457
985.72131,472
985.91022,464
986.09912,476
986.28802,472
986.47693,487
986.66577,497
986.85468,490
987.04352,481
987.23236,482
987.4212,503
987.61005,500
987.79883,499
987.98761,505
988.17645,504
988.36523,508
988.55396,510
988.74274,516
988.93152,513
989.12024,523
989.30896,515
989.49768,521
989.6864,510
989.87506,515
990.06378,543
990.25244,538
990.4411,528
990.62976,539
990.81842,543
991.00708,538
991.19568,537
991.38428,558
991.57288,555
991.76147,537
991.95007,540
992.13867,553
992.32721,551
992.51575,557
992.70428,535
992.89282,529
993.08136,544
993.26984,535
993.45837,527
993.64685,527
993.83533,523
994.0238,523
994.21222,510
994.4007,514
994.58911,520
994.77753,513
994.96594,518
995.15436,515
995.34271,501
995.53113,499
995.71948,496
995.90784,475
996.09619,483
996.28455,469
996.47284,460
996.66119,447
996.84949,440
997.03778,433
997.22607,416
997.41431,418
997.6026,416
997.79083,397
997.97906,396
998.1673,395
998.35553,385
998.5437,387
998.73193,375
998.9201,365
999.10828,370
999.29645,362
999.48456,359
999.67273,354
999.86084,351
1000.049,346
1000.2371,345
1000.4252,344
1000.6132,341
1000.8013,342
1000.9894,340
1001.1774,339
1001.3655,337
1001.5535,328
1001.7415,334
1001.9295,328
1002.1175,334
1002.3055,326
1002.4935,331
1002.6814,332
1002.8694,330
1003.0573,322
1003.2452,317
1003.4332,318
1003.621,317
1003.809,318
1003.9968,311
1004.1847,313
1004.3726,311
1004.5604,313
1004.7482,304
1004.9361,304
1005.1239,304
1005.3117,304
1005.4995,302
1005.6873,295
1005.875,293
1006.0628,293
1006.2505,285
1006.4382,280
1006.626,275
1006.8137,276
1007.0014,278
1007.1891,273
1007.3768,264
1007.5644,260
1007.7521,259
1007.9397,252
1008.1273,244
1008.3149,249
1008.5026,247
1008.6902,245
1008.8777,245
1009.0653,243
1009.2529,244
1009.4404,244
1009.628,244
1009.8155,245
1010.003,244
1010.1905,246
1010.378,241
1010.5655,245
1010.7529,246
1010.9404,245
1011.1279,247
1011.3153,245
1011.5027,245
1011.6901,247
1011.8775,248
1012.0649,244
1012.2523,243
1012.4396,243
1012.627,246
1012.8143,244
1013.0016,245
1013.189,245
1013.3763,245
1013.5636,244
1013.7509,243
1013.9381,246
1014.1254,242
1014.3126,244
1014.4998,244
1014.6871,247
1014.8743,246
1015.0615,246
1015.2487,245
1015.4359,244
1015.623,246
1015.8101,244
1015.9973,244
1016.1844,246
1016.3715,242
1016.5586,246
1016.7457,245
1016.9328,243
1017.1198,244
1017.3069,245
1017.494,247
1017.681,244
1017.868,243
1018.055,247
1018.2419,246
1018.429,242
1018.6159,245
1018.8029,244
1018.9898,247
1019.1768,246
1019.3636,246
1019.5506,241
1019.7375,243
1019.9244,246
1020.1112,246
1020.2981,245
1020.4849,245
1020.6718,245
1020.8586,246
1021.0454,246
1021.2322,243
1021.4189,245
1021.6057,244
1021.7925,245
1021.9792,246
1022.166,246
1022.3527,246
1022.5394,245
1022.7261,248
1022.9128,246
1023.0995,245
1023.2861,245
1023.4728,246
1023.6594,244
1023.846,245
1024.0326,246
1024.2192,246
1024.4059,243
1024.5924,245
1024.7789,247
1024.9655,244
1025.1521,247
1025.3386,248
1025.525,244
1025.7115,246
1025.8981,247
1026.0845,245
1026.271,247
1026.4574,246
1026.6439,247
1026.8303,246
1027.0167,247
1027.2031,247
1027.3895,248
1027.5758,255
1027.7622,251
1027.9486,252
1028.1349,254
1028.3212,258
1028.5076,264
1028.6938,268
1028.8801,283
1029.0664,287
1029.2527,269
1029.4388,259
1029.6251,251
1029.8113,250
1029.9976,245
1030.1837,246
1030.3699,245
1030.556,243
1030.7422,243
1030.9283,246
1031.1145,246
1031.3007,245
1031.4867,246
1031.6729,244
1031.8589,246
1032.0449,246
1032.231,246
1032.417,246
1032.603,246
1032.7891,245
1032.9751,247
1033.161,244
1033.347,247
1033.533,247
1033.719,245
1033.9049,246
1034.0908,243
1034.2767,258
1034.4626,307
1034.6484,251
1034.8344,246
1035.0203,246
1035.2061,247
1035.3918,247
1035.5778,246
1035.7635,246
1035.9493,245
1036.1351,246
1036.3208,247
1036.5066,243
1036.6924,244
1036.8781,246
1037.0637,245
1037.2495,247
1037.4352,247
1037.6208,246
1037.8065,244
1037.9922,244
1038.1777,245
1038.3634,243
1038.549,246
1038.7346,245
1038.9202,245
1039.1057,248
1039.2913,248
1039.4768,245
1039.6624,244
1039.8479,245
1040.0333,247
1040.2189,246
1040.4043,247
1040.5897,245
1040.7753,245
1040.9607,246
1041.1461,246
1041.3314,245
1041.5168,247
1041.7023,246
1041.8876,245
1042.073,246
1042.2583,247
1042.4436,246
1042.6289,247
1042.8142,245
1042.9995,244
1043.1848,247
1043.37,244
1043.5553,244
1043.7405,246
1043.9257,244
1044.111,244
1044.2961,244
1044.4813,248
1044.6664,244
1044.8516,245
1045.0367,243
1045.2218,245
1045.407,244
1045.592,242
1045.7771,242
1045.9622,244
1046.1472,244
1046.3323,246
1046.5173,246
1046.7023,246
1046.8873,244
1047.0723,244
1047.2572,244
1047.4421,246
1047.6271,244
1047.812,247
1047.9969,247
1048.1819,242
1048.3667,246
1048.5516,245
1048.7365,243
1048.9213,244
1049.1062,245
1049.291,246
1049.4757,244
1049.6605,244
1049.8453,246
1050.03,244
1050.2148,246
1050.3995,244
1050.5842,247
1050.7689,244
1050.9536,244
1051.1383,245
1051.323,245
1051.5077,247
1051.6923,245
1051.877,244
1052.0615,246
1052.2461,244
1052.4307,246
1052.6152,244
1052.7998,245
1052.9843,243
1053.1688,245
1053.3534,245
1053.5378,246
1053.7223,246
1053.9067,246
1054.0912,244
1054.2756,247
1054.4601,244
1054.6445,245
1054.8289,244
1055.0133,244
1055.1976,244
1055.382,242
1055.5663,244
1055.7506,245
1055.9349,245
1056.1193,244
1056.3035,245
1056.4878,243
1056.672,242
1056.8562,246
1057.0404,247
1057.2246,246
1057.4088,246
1057.593,246
1057.7772,245
1057.9613,246
1058.1455,245
1058.3296,246
1058.5137,245
1058.6978,248
1058.8818,247
1059.0659,247
1059.25,245
1059.434,248
1059.618,244
1059.802,245
1059.986,243
1060.17,243
1060.3539,247
1060.5378,245
1060.7218,244
1060.9058,245
1061.0896,244
1061.2736,244
1061.4574,243
1061.6412,246
1061.8251,246
1062.0089,245
1062.1927,247
1062.3765,247
1062.5603,248
1062.744,249
1062.9279,248
1063.1116,246
1063.2953,247
1063.479,249
1063.6627,256
1063.8464,253
1064.03,249
1064.2137,249
1064.3973,246
1064.5809,245
1064.7645,245
1064.9481,245
1065.1317,245
1065.3153,248
1065.4988,247
1065.6824,247
1065.8658,245
1066.0493,245
1066.2329,245
1066.4164,241
1066.5997,244
1066.7832,247
1066.9667,244
1067.15,246
1067.3335,247
1067.5168,244
1067.7002,248
1067.8835,244
1068.0669,244
1068.2502,247
1068.4335,246
1068.6168,245
1068.8,245
1068.9834,245
1069.1666,245
1069.3499,244
1069.5331,243
1069.7162,244
1069.8994,244
1070.0826,243
1070.2657,243
1070.4489,243
1070.6321,244
1070.8152,245
1070.9982,246
1071.1813,245
1071.3644,243
1071.5474,243
1071.7305,245
1071.9135,247
1072.0964,245
1072.2794,244
1072.4624,245
1072.6454,246
1072.8284,245
1073.0112,244
1073.1942,249
1073.3771,245
1073.5599,243
1073.7428,246
1073.9257,243
1074.1085,240
1074.2913,246
1074.4741,244
1074.6569,245
1074.8397,244
1075.0225,246
1075.2052,244
1075.3879,243
1075.5706,245
1075.7533,245
1075.9359,247
1076.1187,246
1076.3013,243
1076.4839,244
1076.6665,245
1076.8491,245
1077.0317,247
1077.2142,243
1077.3969,245
1077.5793,243
1077.762,247
1077.9445,242
1078.127,244
1078.3093,241
1078.4918,246
1078.6743,247
1078.8567,246
1079.0392,244
1079.2216,247
1079.4039,244
1079.5863,246
1079.7687,243
1079.9509,244
1080.1333,243
1080.3156,244
1080.4979,244
1080.6802,246
1080.8624,247
1081.0447,246
1081.2269,245
1081.4091,243
1081.5913,245
1081.7734,246
1081.9556,244
1082.1377,243
1082.3198,247
1082.502,245
1082.6841,246
1082.8662,247
1083.0482,246
1083.2303,244
1083.4124,244
1083.5944,245
1083.7764,245
1083.9584,243
1084.1403,245
1084.3223,244
1084.5042,247
1084.6862,246
1084.868,243
1085.0499,243
1085.2318,244
1085.4137,246
1085.5955,244
1085.7773,248
1085.9591,246
1086.1409,245
1086.3226,243
1086.5044,245
1086.6862,246
1086.8679,247
1087.0497,246
1087.2313,242
1087.413,243
1087.5947,244
1087.7764,243
1087.958,245
1088.1395,247
1088.3212,242
1088.5027,245
1088.6843,246
1088.8658,245
1089.0474,244
1089.2289,244
1089.4104,245
1089.5919,244
1089.7733,241
1089.9548,243
1090.1362,246
1090.3176,245
1090.499,244
1090.6804,243
1090.8618,245
1091.0432,244
1091.2245,243
1091.4059,245
1091.5872,243
1091.7684,244
1091.9497,248
1092.131,245
1092.3123,244
1092.4934,245
1092.6747,244
1092.8558,245
1093.037,245
1093.2181,245
1093.3993,240
1093.5804,245
1093.7615,247
1093.9426,245
1094.1237,245
1094.3047,247
1094.4857,246
1094.6667,245
1094.8478,246
1095.0288,245
1095.2097,247
1095.3907,245
1095.5717,245
1095.7526,243
1095.9335,245
1096.1144,244
1096.2953,245
1096.4761,244
1096.657,244
1096.8378,243
1097.0186,244
1097.1993,245
1097.3801,245
1097.5609,244
1097.7416,241
1097.9224,245
1098.103,245
1098.2837,244
1098.4644,244
1098.645,244
1098.8257,244
1099.0063,242
1099.1869,244
1099.3676,245
1099.5481,245
1099.7286,244
1099.9092,246
1100.0897,244
1100.2701,244
1100.4507,244
1100.6311,244
1100.8116,245
1100.9921,243
1101.1725,243
1101.3529,244
1101.5332,243
1101.7136,245
1101.8939,243
1102.0742,243
1102.2546,244
1102.4349,244
1102.6151,244
1102.7954,243
1102.9757,245
1103.1559,243
1103.3361,246
1103.5164,244
1103.6965,245
1103.8767,243
1104.0568,249
1104.2369,245
1104.417,244
1104.5972,243
1104.7772,247
1104.9573,244
1105.1373,244
1105.3173,245
1105.4973,243
1105.6772,243
1105.8573,245
1106.0372,263
1106.2172,441
1106.3971,535
1106.577,252
1106.7568,241
1106.9368,244
1107.1166,244
1107.2964,245
1107.4762,245
1107.656,244
1107.8358,244
1108.0156,245
1108.1953,247
1108.375,245
1108.5547,244
1108.7345,246
1108.9141,245
1109.0938,245
1109.2734,245
1109.453,244
1109.6327,245
1109.8123,245
1109.9918,244
1110.1714,245
1110.3508,243
1110.5304,243
1110.7098,244
1110.8894,251
1111.0688,244
1111.2483,246
1111.4277,245
1111.6072,243
1111.7865,245
1111.9659,244
1112.1453,245
1112.3246,243
1112.5039,245
1112.6832,243
1112.8625,245
1113.0417,246
1113.2211,246
1113.4003,244
1113.5795,241
1113.7587,243
1113.9379,245
1114.1171,246
1114.2961,242
1114.4753,245
1114.6544,247
1114.8335,246
1115.0126,242
1115.1917,248
1115.3706,349
1115.5497,813
1115.7286,268
1115.9077,247
1116.0867,247
1116.2656,247
1116.4445,247
1116.6234,244
1116.8024,246
1116.9812,277
1117.16,410
1117.3389,335
