Date and Time:                Wed Dec 4 18:29:10.452 2024
Software Version:             4.32.30091.0
Temperature (C):              -80
Model:                        DU420_OE
Data Type:                    Counts
Acquisition Mode:             Single Scan
Trigger Mode:                 Internal
Exposure Time (secs):         100
Readout Mode:                 Full Vertical Binning
Horizontal binning:           1
Shutter Mode:                 Fully AUTO
TTL level:                    High
Time to open:                 10 ms
Time to close:                0 ms
Extended Data Range:          off
Horizontally flipped:         false
Vertical Shift Speed (usecs): 32.25
Pixel Readout Time (usecs):   10
Serial Number:                CCD-28590
Pre-Amplifier Gain:           1.7x
Spurious Noise Filter Mode:   No Filter
Photon counted:               false
Data Averaging Filter Mode:   No Filter
KY193i:
Serial Number:                KY-4498
Wavelength (nm):              1023.66
Grating Groove Density (l/mm):600
Grating Blaze:                1000nm



926.90875,251
927.10028,248
927.29187,251
927.4834,251
927.67499,253
927.86652,252
928.05804,254
928.24957,253
928.44104,256
928.63257,255
928.8241,256
929.01556,253
929.20709,254
929.39856,250
929.59003,251
929.78149,254
929.97296,256
930.16443,257
930.35583,259
930.5473,257
930.73871,259
930.93018,261
931.12158,256
931.31299,256
931.50439,259
931.6958,258
931.88721,258
932.07855,259
932.26996,258
932.4613,256
932.65265,255
932.84399,259
933.0354,256
933.22668,258
933.41803,260
933.60938,259
933.80066,261
933.992,261
934.18329,258
934.37457,262
934.56586,258
934.75714,258
934.94843,259
935.13971,260
935.33099,259
935.52222,263
935.71344,260
935.90472,262
936.09595,266
936.28717,262
936.47839,261
936.66956,261
936.86078,261
937.05194,260
937.24316,259
937.43433,262
937.62549,264
937.81665,262
938.00781,266
938.19897,263
938.39014,264
938.58124,262
938.77234,266
938.9635,264
939.1546,267
939.3457,264
939.5368,263
939.72791,266
939.91895,266
940.11005,270
940.30109,266
940.49213,268
940.68323,268
940.87427,267
941.06525,270
941.25629,265
941.44733,268
941.63831,273
941.82935,269
942.02032,271
942.2113,270
942.40228,272
942.59326,268
942.78424,271
942.97516,273
943.16614,270
943.35706,275
943.54803,275
943.73895,277
943.92987,275
944.12079,278
944.31165,277
944.50256,276
944.69342,279
944.88434,278
945.0752,283
945.26605,281
945.45691,280
945.64777,277
945.83856,287
946.02942,283
946.22021,287
946.41107,281
946.60187,286
946.79266,284
946.98346,289
947.17426,289
947.36499,286
947.55579,290
947.74652,293
947.93726,292
948.12799,292
948.31873,292
948.50946,300
948.7002,297
948.89093,294
949.0816,300
949.27228,299
949.46301,303
949.65369,299
949.8443,303
950.03497,300
950.22565,300
950.41626,308
950.60693,307
950.79755,311
950.98816,305
951.17877,315
951.36938,315
951.56,313
951.75055,313
951.94116,319
952.13171,318
952.32227,325
952.51282,324
952.70337,331
952.89392,325
953.08441,334
953.27496,333
953.46545,330
953.65594,335
953.84644,336
954.03693,342
954.22742,345
954.41791,352
954.60834,352
954.79883,359
954.98926,360
955.17969,361
955.37012,367
955.56055,363
955.75092,372
955.94135,377
956.13171,393
956.32208,386
956.51251,401
956.70288,401
956.89319,402
957.08356,407
957.27393,410
957.46423,420
957.65454,424
957.84485,425
958.03516,434
958.22546,433
958.41577,434
958.60602,445
958.79633,436
958.98657,443
959.17682,444
959.36707,444
959.55731,452
959.74756,437
959.93774,451
960.12799,446
960.31818,440
960.50836,450
960.69855,451
960.88873,444
961.07892,439
961.26904,442
961.45923,440
961.64935,436
961.83948,427
962.0296,429
962.21973,426
962.40979,425
962.59991,424
962.78998,424
962.9801,407
963.17017,426
963.36023,420
963.55023,420
963.7403,414
963.9303,410
964.12036,401
964.31036,409
964.50037,406
964.69037,409
964.88037,401
965.07031,397
965.26031,395
965.45026,399
965.6402,407
965.83014,393
966.02008,390
966.21002,402
966.3999,400
966.58984,390
966.77972,395
966.9696,395
967.15948,395
967.34937,395
967.53925,391
967.72906,397
967.91895,393
968.10876,390
968.29858,391
968.4884,391
968.67822,391
968.86798,405
969.0578,396
969.24756,404
969.43732,413
969.62708,412
969.81683,416
970.00659,411
970.19629,410
970.38599,418
970.57574,422
970.76544,422
970.95514,430
971.14478,443
971.33447,436
971.52417,446
971.71381,451
971.90344,457
972.09308,446
972.28271,462
972.47235,472
972.66193,460
972.8515,473
973.04114,468
973.23071,478
973.42029,472
973.6098,471
973.79938,475
973.98889,476
974.17847,481
974.36798,479
974.5575,475
974.74701,493
974.93646,468
975.12598,476
975.31543,483
975.50488,470
975.69434,484
975.88379,478
976.07324,483
976.26263,483
976.45209,478
976.64148,487
976.83087,486
977.02026,488
977.20966,497
977.39899,496
977.58838,500
977.77771,501
977.96704,500
978.15637,500
978.3457,507
978.53497,497
978.7243,500
978.91357,498
979.10284,493
979.29211,499
979.48138,502
979.67065,495
979.85986,501
980.04913,507
980.23834,498
980.42755,498
980.61676,499
980.80591,509
980.99512,512
981.18427,483
981.37341,509
981.56256,521
981.75171,501
981.94086,516
982.12994,499
982.31909,504
982.50818,515
982.69727,516
982.88635,517
983.07544,496
983.26447,504
983.45355,508
983.64258,516
983.8316,512
984.02063,519
984.20959,512
984.39862,510
984.58759,509
984.77661,515
984.96558,518
985.15448,517
985.34344,518
985.53241,523
985.72131,525
985.91022,517
986.09912,539
986.28802,535
986.47693,541
986.66577,541
986.85468,546
987.04352,540
987.23236,550
987.4212,572
987.61005,567
987.79883,556
987.98761,565
988.17645,563
988.36523,567
988.55396,570
988.74274,578
988.93152,570
989.12024,572
989.30896,581
989.49768,579
989.6864,589
989.87506,584
990.06378,584
990.25244,606
990.4411,604
990.62976,607
990.81842,619
991.00708,617
991.19568,614
991.38428,627
991.57288,610
991.76147,610
991.95007,604
992.13867,618
992.32721,609
992.51575,618
992.70428,614
992.89282,615
993.08136,600
993.26984,611
993.45837,600
993.64685,592
993.83533,591
994.0238,594
994.21222,578
994.4007,585
994.58911,597
994.77753,570
994.96594,588
995.15436,576
995.34271,570
995.53113,577
995.71948,552
995.90784,543
996.09619,534
996.28455,530
996.47284,526
996.66119,510
996.84949,497
997.03778,478
997.22607,466
997.41431,455
997.6026,454
997.79083,435
997.97906,442
998.1673,432
998.35553,412
998.5437,408
998.73193,400
998.9201,396
999.10828,398
999.29645,391
999.48456,389
999.67273,380
999.86084,378
1000.049,372
1000.2371,372
1000.4252,370
1000.6132,365
1000.8013,368
1000.9894,355
1001.1774,362
1001.3655,362
1001.5535,352
1001.7415,344
1001.9295,345
1002.1175,351
1002.3055,352
1002.4935,357
1002.6814,352
1002.8694,344
1003.0573,342
1003.2452,335
1003.4332,337
1003.621,338
1003.809,329
1003.9968,327
1004.1847,328
1004.3726,335
1004.5604,321
1004.7482,320
1004.9361,316
1005.1239,315
1005.3117,320
1005.4995,311
1005.6873,307
1005.875,305
1006.0628,300
1006.2505,295
1006.4382,285
1006.626,287
1006.8137,286
1007.0014,280
1007.1891,275
1007.3768,267
1007.5644,264
1007.7521,258
1007.9397,254
1008.1273,252
1008.3149,248
1008.5026,249
1008.6902,246
1008.8777,245
1009.0653,243
1009.2529,244
1009.4404,246
1009.628,247
1009.8155,244
1010.003,242
1010.1905,245
1010.378,246
1010.5655,245
1010.7529,245
1010.9404,245
1011.1279,245
1011.3153,243
1011.5027,246
1011.6901,245
1011.8775,248
1012.0649,246
1012.2523,244
1012.4396,244
1012.627,243
1012.8143,243
1013.0016,246
1013.189,245
1013.3763,245
1013.5636,245
1013.7509,245
1013.9381,248
1014.1254,245
1014.3126,246
1014.4998,246
1014.6871,245
1014.8743,247
1015.0615,246
1015.2487,244
1015.4359,245
1015.623,245
1015.8101,244
1015.9973,244
1016.1844,244
1016.3715,245
1016.5586,244
1016.7457,244
1016.9328,246
1017.1198,246
1017.3069,244
1017.494,244
1017.681,245
1017.868,243
1018.055,242
1018.2419,244
1018.429,246
1018.6159,242
1018.8029,246
1018.9898,244
1019.1768,244
1019.3636,243
1019.5506,244
1019.7375,243
1019.9244,243
1020.1112,244
1020.2981,242
1020.4849,244
1020.6718,246
1020.8586,243
1021.0454,246
1021.2322,248
1021.4189,246
1021.6057,243
1021.7925,244
1021.9792,245
1022.166,245
1022.3527,248
1022.5394,246
1022.7261,247
1022.9128,244
1023.0995,247
1023.2861,244
1023.4728,245
1023.6594,247
1023.846,245
1024.0326,246
1024.2192,245
1024.4059,246
1024.5924,250
1024.7789,246
1024.9655,246
1025.1521,251
1025.3386,247
1025.525,245
1025.7115,247
1025.8981,245
1026.0845,249
1026.271,245
1026.4574,247
1026.6439,246
1026.8303,246
1027.0167,246
1027.2031,252
1027.3895,251
1027.5758,253
1027.7622,261
1027.9486,265
1028.1349,263
1028.3212,270
1028.5076,275
1028.6938,286
1028.8801,310
1029.0664,309
1029.2527,283
1029.4388,262
1029.6251,252
1029.8113,250
1029.9976,248
1030.1837,248
1030.3699,248
1030.556,247
1030.7422,246
1030.9283,247
1031.1145,248
1031.3007,248
1031.4867,247
1031.6729,247
1031.8589,247
1032.0449,246
1032.231,247
1032.417,246
1032.603,245
1032.7891,245
1032.9751,244
1033.161,245
1033.347,244
1033.533,244
1033.719,246
1033.9049,245
1034.0908,246
1034.2767,246
1034.4626,245
1034.6484,246
1034.8344,246
1035.0203,247
1035.2061,245
1035.3918,246
1035.5778,246
1035.7635,245
1035.9493,246
1036.1351,246
1036.3208,245
1036.5066,245
1036.6924,245
1036.8781,246
1037.0637,245
1037.2495,245
1037.4352,246
1037.6208,246
1037.8065,245
1037.9922,247
1038.1777,246
1038.3634,247
1038.549,244
1038.7346,248
1038.9202,245
1039.1057,245
1039.2913,244
1039.4768,245
1039.6624,247
1039.8479,243
1040.0333,245
1040.2189,247
1040.4043,244
1040.5897,245
1040.7753,244
1040.9607,247
1041.1461,245
1041.3314,243
1041.5168,244
1041.7023,246
1041.8876,247
1042.073,245
1042.2583,244
1042.4436,248
1042.6289,247
1042.8142,247
1042.9995,245
1043.1848,243
1043.37,243
1043.5553,244
1043.7405,245
1043.9257,244
1044.111,246
1044.2961,244
1044.4813,247
1044.6664,283
1044.8516,882
1045.0367,685
1045.2218,266
1045.407,247
1045.592,244
1045.7771,247
1045.9622,248
1046.1472,245
1046.3323,243
1046.5173,247
1046.7023,243
1046.8873,246
1047.0723,242
1047.2572,245
1047.4421,247
1047.6271,242
1047.812,243
1047.9969,245
1048.1819,244
1048.3667,243
1048.5516,246
1048.7365,247
1048.9213,246
1049.1062,244
1049.291,246
1049.4757,246
1049.6605,246
1049.8453,244
1050.03,244
1050.2148,245
1050.3995,246
1050.5842,247
1050.7689,245
1050.9536,244
1051.1383,245
1051.323,248
1051.5077,245
1051.6923,249
1051.877,245
1052.0615,245
1052.2461,244
1052.4307,245
1052.6152,246
1052.7998,243
1052.9843,246
1053.1688,245
1053.3534,247
1053.5378,243
1053.7223,245
1053.9067,246
1054.0912,244
1054.2756,247
1054.4601,248
1054.6445,246
1054.8289,244
1055.0133,246
1055.1976,244
1055.382,245
1055.5663,244
1055.7506,245
1055.9349,248
1056.1193,245
1056.3035,243
1056.4878,244
1056.672,246
1056.8562,245
1057.0404,244
1057.2246,243
1057.4088,245
1057.593,249
1057.7772,247
1057.9613,244
1058.1455,243
1058.3296,243
1058.5137,247
1058.6978,247
1058.8818,246
1059.0659,245
1059.25,249
1059.434,246
1059.618,247
1059.802,246
1059.986,245
1060.17,245
1060.3539,247
1060.5378,246
1060.7218,246
1060.9058,246
1061.0896,244
1061.2736,247
1061.4574,248
1061.6412,247
1061.8251,246
1062.0089,248
1062.1927,253
1062.3765,252
1062.5603,260
1062.744,261
1062.9279,262
1063.1116,268
1063.2953,274
1063.479,290
1063.6627,307
1063.8464,311
1064.03,286
1064.2137,270
1064.3973,258
1064.5809,249
1064.7645,249
1064.9481,248
1065.1317,247
1065.3153,251
1065.4988,249
1065.6824,247
1065.8658,245
1066.0493,244
1066.2329,243
1066.4164,247
1066.5997,244
1066.7832,244
1066.9667,246
1067.15,246
1067.3335,247
1067.5168,246
1067.7002,247
1067.8835,243
1068.0669,244
1068.2502,244
1068.4335,244
1068.6168,247
1068.8,245
1068.9834,243
1069.1666,244
1069.3499,246
1069.5331,245
1069.7162,245
1069.8994,243
1070.0826,246
1070.2657,246
1070.4489,244
1070.6321,242
1070.8152,245
1070.9982,243
1071.1813,244
1071.3644,244
1071.5474,245
1071.7305,247
1071.9135,244
1072.0964,245
1072.2794,245
1072.4624,244
1072.6454,244
1072.8284,244
1073.0112,244
1073.1942,247
1073.3771,246
1073.5599,246
1073.7428,247
1073.9257,247
1074.1085,244
1074.2913,244
1074.4741,245
1074.6569,244
1074.8397,244
1075.0225,243
1075.2052,244
1075.3879,244
1075.5706,247
1075.7533,244
1075.9359,243
1076.1187,246
1076.3013,245
1076.4839,244
1076.6665,246
1076.8491,248
1077.0317,247
1077.2142,244
1077.3969,243
1077.5793,245
1077.762,244
1077.9445,244
1078.127,244
1078.3093,247
1078.4918,245
1078.6743,242
1078.8567,246
1079.0392,245
1079.2216,243
1079.4039,245
1079.5863,244
1079.7687,243
1079.9509,243
1080.1333,242
1080.3156,246
1080.4979,243
1080.6802,244
1080.8624,247
1081.0447,243
1081.2269,245
1081.4091,243
1081.5913,244
1081.7734,245
1081.9556,244
1082.1377,244
1082.3198,245
1082.502,246
1082.6841,244
1082.8662,243
1083.0482,243
1083.2303,243
1083.4124,245
1083.5944,245
1083.7764,243
1083.9584,245
1084.1403,245
1084.3223,244
1084.5042,244
1084.6862,246
1084.868,246
1085.0499,244
1085.2318,243
1085.4137,245
1085.5955,245
1085.7773,247
1085.9591,244
1086.1409,244
1086.3226,246
1086.5044,246
1086.6862,246
1086.8679,246
1087.0497,247
1087.2313,243
1087.413,245
1087.5947,245
1087.7764,244
1087.958,244
1088.1395,244
1088.3212,247
1088.5027,247
1088.6843,245
1088.8658,243
1089.0474,243
1089.2289,244
1089.4104,246
1089.5919,244
1089.7733,243
1089.9548,247
1090.1362,245
1090.3176,243
1090.499,245
1090.6804,244
1090.8618,244
1091.0432,244
1091.2245,243
1091.4059,243
1091.5872,245
1091.7684,245
1091.9497,249
1092.131,246
1092.3123,245
1092.4934,245
1092.6747,246
1092.8558,244
1093.037,243
1093.2181,241
1093.3993,243
1093.5804,245
1093.7615,244
1093.9426,244
1094.1237,248
1094.3047,247
1094.4857,247
1094.6667,244
1094.8478,244
1095.0288,245
1095.2097,248
1095.3907,243
1095.5717,247
1095.7526,246
1095.9335,243
1096.1144,244
1096.2953,245
1096.4761,246
1096.657,247
1096.8378,244
1097.0186,243
1097.1993,246
1097.3801,243
1097.5609,243
1097.7416,243
1097.9224,244
1098.103,245
1098.2837,246
1098.4644,242
1098.645,245
1098.8257,244
1099.0063,244
1099.1869,243
1099.3676,243
1099.5481,244
1099.7286,242
1099.9092,245
1100.0897,244
1100.2701,242
1100.4507,244
1100.6311,245
1100.8116,243
1100.9921,243
1101.1725,245
1101.3529,246
1101.5332,243
1101.7136,244
1101.8939,247
1102.0742,242
1102.2546,243
1102.4349,246
1102.6151,243
1102.7954,246
1102.9757,244
1103.1559,246
1103.3361,248
1103.5164,245
1103.6965,244
1103.8767,243
1104.0568,247
1104.2369,245
1104.417,245
1104.5972,244
1104.7772,244
1104.9573,246
1105.1373,243
1105.3173,245
1105.4973,243
1105.6772,243
1105.8573,246
1106.0372,246
1106.2172,243
1106.3971,241
1106.577,246
1106.7568,247
1106.9368,244
1107.1166,246
1107.2964,244
1107.4762,241
1107.656,244
1107.8358,246
1108.0156,244
1108.1953,246
1108.375,245
1108.5547,243
1108.7345,245
1108.9141,244
1109.0938,243
1109.2734,246
1109.453,246
1109.6327,245
1109.8123,244
1109.9918,243
1110.1714,243
1110.3508,243
1110.5304,244
1110.7098,244
1110.8894,246
1111.0688,245
1111.2483,246
1111.4277,245
1111.6072,245
1111.7865,244
1111.9659,272
1112.1453,2012
1112.3246,265
1112.5039,243
1112.6832,244
1112.8625,245
1113.0417,247
1113.2211,242
1113.4003,243
1113.5795,244
1113.7587,243
1113.9379,243
1114.1171,242
1114.2961,244
1114.4753,243
1114.6544,246
1114.8335,244
1115.0126,245
1115.1917,245
1115.3706,243
1115.5497,244
1115.7286,244
1115.9077,244
1116.0867,245
1116.2656,251
1116.4445,243
1116.6234,244
1116.8024,243
1116.9812,245
1117.16,247
1117.3389,247
