Date and Time:                Wed Dec 4 17:34:08.284 2024
Software Version:             4.32.30091.0
Temperature (C):              -80
Model:                        DU420_OE
Data Type:                    Counts
Acquisition Mode:             Single Scan
Trigger Mode:                 Internal
Exposure Time (secs):         100
Readout Mode:                 Full Vertical Binning
Horizontal binning:           1
Shutter Mode:                 Fully AUTO
TTL level:                    High
Time to open:                 10 ms
Time to close:                0 ms
Extended Data Range:          off
Horizontally flipped:         false
Vertical Shift Speed (usecs): 32.25
Pixel Readout Time (usecs):   10
Serial Number:                CCD-28590
Pre-Amplifier Gain:           1.7x
Spurious Noise Filter Mode:   No Filter
Photon counted:               false
Data Averaging Filter Mode:   No Filter
KY193i:
Serial Number:                KY-4498
Wavelength (nm):              1023.66
Grating Groove Density (l/mm):600
Grating Blaze:                1000nm



926.90875,250
927.10028,250
927.29187,249
927.4834,252
927.67499,252
927.86652,252
928.05804,255
928.24957,252
928.44104,254
928.63257,254
928.8241,252
929.01556,254
929.20709,251
929.39856,253
929.59003,253
929.78149,256
929.97296,251
930.16443,251
930.35583,255
930.5473,256
930.73871,256
930.93018,254
931.12158,257
931.31299,254
931.50439,258
931.6958,253
931.88721,259
932.07855,256
932.26996,256
932.4613,258
932.65265,256
932.84399,259
933.0354,258
933.22668,258
933.41803,255
933.60938,255
933.80066,258
933.992,258
934.18329,258
934.37457,259
934.56586,261
934.75714,256
934.94843,256
935.13971,255
935.33099,260
935.52222,257
935.71344,254
935.90472,257
936.09595,257
936.28717,259
936.47839,259
936.66956,258
936.86078,259
937.05194,258
937.24316,255
937.43433,262
937.62549,260
937.81665,257
938.00781,261
938.19897,257
938.39014,259
938.58124,262
938.77234,260
938.9635,262
939.1546,257
939.3457,260
939.5368,263
939.72791,263
939.91895,261
940.11005,264
940.30109,264
940.49213,262
940.68323,263
940.87427,262
941.06525,262
941.25629,264
941.44733,264
941.63831,263
941.82935,264
942.02032,266
942.2113,265
942.40228,269
942.59326,266
942.78424,268
942.97516,265
943.16614,269
943.35706,268
943.54803,265
943.73895,266
943.92987,272
944.12079,270
944.31165,268
944.50256,275
944.69342,270
944.88434,273
945.0752,276
945.26605,271
945.45691,275
945.64777,275
945.83856,275
946.02942,272
946.22021,276
946.41107,277
946.60187,277
946.79266,276
946.98346,276
947.17426,281
947.36499,276
947.55579,277
947.74652,277
947.93726,282
948.12799,280
948.31873,286
948.50946,284
948.7002,285
948.89093,288
949.0816,288
949.27228,286
949.46301,287
949.65369,285
949.8443,284
950.03497,288
950.22565,287
950.41626,288
950.60693,294
950.79755,290
950.98816,291
951.17877,296
951.36938,291
951.56,293
951.75055,293
951.94116,301
952.13171,300
952.32227,298
952.51282,301
952.70337,305
952.89392,304
953.08441,308
953.27496,314
953.46545,311
953.65594,311
953.84644,311
954.03693,313
954.22742,318
954.41791,320
954.60834,326
954.79883,325
954.98926,320
955.17969,329
955.37012,333
955.56055,335
955.75092,333
955.94135,344
956.13171,351
956.32208,352
956.51251,350
956.70288,358
956.89319,361
957.08356,356
957.27393,361
957.46423,378
957.65454,372
957.84485,373
958.03516,375
958.22546,370
958.41577,386
958.60602,389
958.79633,384
958.98657,391
959.17682,384
959.36707,386
959.55731,389
959.74756,393
959.93774,393
960.12799,395
960.31818,399
960.50836,396
960.69855,396
960.88873,390
961.07892,385
961.26904,387
961.45923,391
961.64935,390
961.83948,376
962.0296,382
962.21973,385
962.40979,383
962.59991,384
962.78998,375
962.9801,379
963.17017,386
963.36023,387
963.55023,379
963.7403,379
963.9303,378
964.12036,379
964.31036,378
964.50037,384
964.69037,379
964.88037,374
965.07031,371
965.26031,368
965.45026,373
965.6402,383
965.83014,375
966.02008,372
966.21002,372
966.3999,371
966.58984,374
966.77972,370
966.9696,378
967.15948,368
967.34937,381
967.53925,375
967.72906,378
967.91895,370
968.10876,378
968.29858,369
968.4884,367
968.67822,382
968.86798,392
969.0578,388
969.24756,386
969.43732,394
969.62708,396
969.81683,401
970.00659,403
970.19629,397
970.38599,401
970.57574,407
970.76544,418
970.95514,421
971.14478,425
971.33447,426
971.52417,432
971.71381,435
971.90344,433
972.09308,437
972.28271,457
972.47235,464
972.66193,463
972.8515,460
973.04114,459
973.23071,455
973.42029,465
973.6098,469
973.79938,477
973.98889,478
974.17847,464
974.36798,477
974.5575,484
974.74701,483
974.93646,482
975.12598,485
975.31543,481
975.50488,491
975.69434,490
975.88379,485
976.07324,486
976.26263,493
976.45209,493
976.64148,502
976.83087,503
977.02026,502
977.20966,504
977.39899,509
977.58838,513
977.77771,511
977.96704,517
978.15637,523
978.3457,526
978.53497,515
978.7243,525
978.91357,521
979.10284,514
979.29211,521
979.48138,535
979.67065,519
979.85986,521
980.04913,526
980.23834,524
980.42755,521
980.61676,526
980.80591,531
980.99512,533
981.18427,532
981.37341,526
981.56256,550
981.75171,542
981.94086,551
982.12994,541
982.31909,542
982.50818,546
982.69727,554
982.88635,546
983.07544,731
983.26447,819
983.45355,984
983.64258,925
983.8316,720
984.02063,604
984.20959,559
984.39862,555
984.58759,569
984.77661,564
984.96558,551
985.15448,573
985.34344,574
985.53241,586
985.72131,586
985.91022,580
986.09912,606
986.28802,613
986.47693,609
986.66577,600
986.85468,600
987.04352,594
987.23236,615
987.4212,630
987.61005,623
987.79883,625
987.98761,631
988.17645,636
988.36523,638
988.55396,632
988.74274,638
988.93152,663
989.12024,645
989.30896,647
989.49768,644
989.6864,663
989.87506,655
990.06378,677
990.25244,671
990.4411,682
990.62976,691
990.81842,693
991.00708,700
991.19568,704
991.38428,707
991.57288,703
991.76147,725
991.95007,707
992.13867,715
992.32721,699
992.51575,710
992.70428,697
992.89282,708
993.08136,686
993.26984,696
993.45837,700
993.64685,698
993.83533,687
994.0238,666
994.21222,663
994.4007,678
994.58911,681
994.77753,679
994.96594,668
995.15436,668
995.34271,661
995.53113,660
995.71948,648
995.90784,630
996.09619,629
996.28455,605
996.47284,592
996.66119,592
996.84949,572
997.03778,558
997.22607,548
997.41431,534
997.6026,522
997.79083,509
997.97906,504
998.1673,494
998.35553,490
998.5437,488
998.73193,467
998.9201,463
999.10828,462
999.29645,445
999.48456,450
999.67273,438
999.86084,432
1000.049,427
1000.2371,427
1000.4252,420
1000.6132,409
1000.8013,415
1000.9894,409
1001.1774,413
1001.3655,406
1001.5535,402
1001.7415,400
1001.9295,397
1002.1175,395
1002.3055,393
1002.4935,399
1002.6814,399
1002.8694,399
1003.0573,394
1003.2452,383
1003.4332,381
1003.621,372
1003.809,374
1003.9968,370
1004.1847,368
1004.3726,363
1004.5604,367
1004.7482,361
1004.9361,351
1005.1239,444
1005.3117,512
1005.4995,344
1005.6873,345
1005.875,333
1006.0628,325
1006.2505,322
1006.4382,314
1006.626,307
1006.8137,300
1007.0014,298
1007.1891,291
1007.3768,281
1007.5644,275
1007.7521,266
1007.9397,256
1008.1273,254
1008.3149,247
1008.5026,251
1008.6902,247
1008.8777,246
1009.0653,245
1009.2529,245
1009.4404,247
1009.628,247
1009.8155,243
1010.003,244
1010.1905,244
1010.378,245
1010.5655,243
1010.7529,246
1010.9404,244
1011.1279,245
1011.3153,244
1011.5027,245
1011.6901,246
1011.8775,246
1012.0649,247
1012.2523,244
1012.4396,241
1012.627,243
1012.8143,242
1013.0016,245
1013.189,248
1013.3763,244
1013.5636,245
1013.7509,244
1013.9381,245
1014.1254,243
1014.3126,244
1014.4998,244
1014.6871,247
1014.8743,244
1015.0615,245
1015.2487,246
1015.4359,245
1015.623,246
1015.8101,245
1015.9973,243
1016.1844,247
1016.3715,244
1016.5586,247
1016.7457,246
1016.9328,244
1017.1198,247
1017.3069,248
1017.494,246
1017.681,248
1017.868,244
1018.055,246
1018.2419,243
1018.429,246
1018.6159,245
1018.8029,244
1018.9898,244
1019.1768,247
1019.3636,245
1019.5506,242
1019.7375,244
1019.9244,244
1020.1112,244
1020.2981,247
1020.4849,247
1020.6718,247
1020.8586,244
1021.0454,244
1021.2322,247
1021.4189,246
1021.6057,244
1021.7925,244
1021.9792,244
1022.166,249
1022.3527,248
1022.5394,243
1022.7261,246
1022.9128,249
1023.0995,245
1023.2861,242
1023.4728,244
1023.6594,244
1023.846,245
1024.0326,245
1024.2192,247
1024.4059,245
1024.5924,248
1024.7789,245
1024.9655,246
1025.1521,247
1025.3386,247
1025.525,248
1025.7115,246
1025.8981,247
1026.0845,247
1026.271,245
1026.4574,247
1026.6439,248
1026.8303,246
1027.0167,246
1027.2031,249
1027.3895,252
1027.5758,258
1027.7622,259
1027.9486,260
1028.1349,266
1028.3212,271
1028.5076,275
1028.6938,292
1028.8801,319
1029.0664,339
1029.2527,295
1029.4388,270
1029.6251,257
1029.8113,247
1029.9976,248
1030.1837,247
1030.3699,250
1030.556,248
1030.7422,247
1030.9283,247
1031.1145,246
1031.3007,244
1031.4867,246
1031.6729,244
1031.8589,247
1032.0449,246
1032.231,244
1032.417,248
1032.603,245
1032.7891,246
1032.9751,246
1033.161,245
1033.347,247
1033.533,247
1033.719,244
1033.9049,247
1034.0908,245
1034.2767,246
1034.4626,247
1034.6484,247
1034.8344,247
1035.0203,244
1035.2061,244
1035.3918,246
1035.5778,246
1035.7635,244
1035.9493,246
1036.1351,245
1036.3208,247
1036.5066,244
1036.6924,244
1036.8781,247
1037.0637,246
1037.2495,245
1037.4352,248
1037.6208,247
1037.8065,246
1037.9922,245
1038.1777,245
1038.3634,245
1038.549,245
1038.7346,244
1038.9202,245
1039.1057,241
1039.2913,245
1039.4768,245
1039.6624,245
1039.8479,246
1040.0333,244
1040.2189,245
1040.4043,244
1040.5897,246
1040.7753,242
1040.9607,245
1041.1461,243
1041.3314,243
1041.5168,247
1041.7023,246
1041.8876,245
1042.073,244
1042.2583,245
1042.4436,247
1042.6289,244
1042.8142,243
1042.9995,246
1043.1848,247
1043.37,242
1043.5553,245
1043.7405,245
1043.9257,245
1044.111,244
1044.2961,246
1044.4813,246
1044.6664,244
1044.8516,244
1045.0367,245
1045.2218,244
1045.407,248
1045.592,247
1045.7771,245
1045.9622,244
1046.1472,244
1046.3323,244
1046.5173,246
1046.7023,247
1046.8873,246
1047.0723,245
1047.2572,243
1047.4421,246
1047.6271,246
1047.812,247
1047.9969,248
1048.1819,245
1048.3667,244
1048.5516,245
1048.7365,245
1048.9213,247
1049.1062,244
1049.291,245
1049.4757,249
1049.6605,246
1049.8453,244
1050.03,246
1050.2148,248
1050.3995,246
1050.5842,243
1050.7689,245
1050.9536,246
1051.1383,245
1051.323,244
1051.5077,244
1051.6923,245
1051.877,245
1052.0615,247
1052.2461,244
1052.4307,246
1052.6152,245
1052.7998,248
1052.9843,244
1053.1688,243
1053.3534,244
1053.5378,247
1053.7223,243
1053.9067,246
1054.0912,246
1054.2756,245
1054.4601,246
1054.6445,244
1054.8289,246
1055.0133,246
1055.1976,241
1055.382,244
1055.5663,247
1055.7506,245
1055.9349,247
1056.1193,245
1056.3035,246
1056.4878,247
1056.672,244
1056.8562,244
1057.0404,247
1057.2246,244
1057.4088,246
1057.593,248
1057.7772,243
1057.9613,243
1058.1455,245
1058.3296,245
1058.5137,246
1058.6978,246
1058.8818,246
1059.0659,245
1059.25,248
1059.434,248
1059.618,247
1059.802,246
1059.986,244
1060.17,244
1060.3539,245
1060.5378,248
1060.7218,247
1060.9058,246
1061.0896,246
1061.2736,244
1061.4574,246
1061.6412,247
1061.8251,247
1062.0089,247
1062.1927,250
1062.3765,255
1062.5603,254
1062.744,259
1062.9279,258
1063.1116,264
1063.2953,273
1063.479,289
1063.6627,308
1063.8464,307
1064.03,283
1064.2137,268
1064.3973,258
1064.5809,251
1064.7645,248
1064.9481,249
1065.1317,250
1065.3153,251
1065.4988,247
1065.6824,248
1065.8658,244
1066.0493,247
1066.2329,247
1066.4164,244
1066.5997,246
1066.7832,245
1066.9667,246
1067.15,246
1067.3335,247
1067.5168,247
1067.7002,247
1067.8835,243
1068.0669,247
1068.2502,247
1068.4335,243
1068.6168,245
1068.8,245
1068.9834,246
1069.1666,245
1069.3499,245
1069.5331,245
1069.7162,245
1069.8994,248
1070.0826,246
1070.2657,244
1070.4489,243
1070.6321,246
1070.8152,246
1070.9982,244
1071.1813,243
1071.3644,244
1071.5474,246
1071.7305,244
1071.9135,244
1072.0964,245
1072.2794,245
1072.4624,245
1072.6454,244
1072.8284,246
1073.0112,244
1073.1942,246
1073.3771,247
1073.5599,244
1073.7428,245
1073.9257,245
1074.1085,243
1074.2913,244
1074.4741,247
1074.6569,246
1074.8397,242
1075.0225,243
1075.2052,246
1075.3879,247
1075.5706,243
1075.7533,243
1075.9359,245
1076.1187,245
1076.3013,244
1076.4839,244
1076.6665,245
1076.8491,244
1077.0317,243
1077.2142,245
1077.3969,244
1077.5793,244
1077.762,244
1077.9445,243
1078.127,243
1078.3093,244
1078.4918,245
1078.6743,244
1078.8567,246
1079.0392,245
1079.2216,243
1079.4039,245
1079.5863,243
1079.7687,243
1079.9509,242
1080.1333,246
1080.3156,245
1080.4979,246
1080.6802,247
1080.8624,246
1081.0447,245
1081.2269,243
1081.4091,243
1081.5913,247
1081.7734,244
1081.9556,245
1082.1377,241
1082.3198,244
1082.502,246
1082.6841,245
1082.8662,247
1083.0482,245
1083.2303,243
1083.4124,243
1083.5944,243
1083.7764,242
1083.9584,243
1084.1403,246
1084.3223,246
1084.5042,248
1084.6862,243
1084.868,244
1085.0499,245
1085.2318,242
1085.4137,244
1085.5955,245
1085.7773,244
1085.9591,245
1086.1409,246
1086.3226,243
1086.5044,244
1086.6862,242
1086.8679,244
1087.0497,245
1087.2313,245
1087.413,245
1087.5947,246
1087.7764,246
1087.958,243
1088.1395,243
1088.3212,245
1088.5027,245
1088.6843,245
1088.8658,244
1089.0474,244
1089.2289,244
1089.4104,244
1089.5919,244
1089.7733,245
1089.9548,244
1090.1362,245
1090.3176,244
1090.499,246
1090.6804,246
1090.8618,243
1091.0432,244
1091.2245,244
1091.4059,243
1091.5872,243
1091.7684,245
1091.9497,248
1092.131,247
1092.3123,243
1092.4934,246
1092.6747,245
1092.8558,245
1093.037,245
1093.2181,243
1093.3993,243
1093.5804,246
1093.7615,246
1093.9426,243
1094.1237,245
1094.3047,248
1094.4857,244
1094.6667,244
1094.8478,246
1095.0288,245
1095.2097,244
1095.3907,243
1095.5717,247
1095.7526,245
1095.9335,246
1096.1144,247
1096.2953,246
1096.4761,244
1096.657,245
1096.8378,244
1097.0186,246
1097.1993,246
1097.3801,246
1097.5609,245
1097.7416,245
1097.9224,244
1098.103,247
1098.2837,243
1098.4644,244
1098.645,245
1098.8257,243
1099.0063,243
1099.1869,244
1099.3676,245
1099.5481,244
1099.7286,246
1099.9092,245
1100.0897,243
1100.2701,244
1100.4507,243
1100.6311,243
1100.8116,245
1100.9921,243
1101.1725,247
1101.3529,245
1101.5332,244
1101.7136,244
1101.8939,245
1102.0742,242
1102.2546,244
1102.4349,246
1102.6151,245
1102.7954,243
1102.9757,245
1103.1559,245
1103.3361,245
1103.5164,245
1103.6965,245
1103.8767,242
1104.0568,244
1104.2369,246
1104.417,245
1104.5972,245
1104.7772,243
1104.9573,242
1105.1373,245
1105.3173,245
1105.4973,243
1105.6772,245
1105.8573,244
1106.0372,241
1106.2172,245
1106.3971,245
1106.577,244
1106.7568,243
1106.9368,243
1107.1166,244
1107.2964,245
1107.4762,245
1107.656,244
1107.8358,244
1108.0156,243
1108.1953,245
1108.375,243
1108.5547,242
1108.7345,244
1108.9141,243
1109.0938,244
1109.2734,243
1109.453,243
1109.6327,243
1109.8123,245
1109.9918,247
1110.1714,242
1110.3508,242
1110.5304,244
1110.7098,245
1110.8894,247
1111.0688,245
1111.2483,244
1111.4277,243
1111.6072,244
1111.7865,244
1111.9659,244
1112.1453,245
1112.3246,243
1112.5039,244
1112.6832,243
1112.8625,247
1113.0417,245
1113.2211,242
1113.4003,244
1113.5795,244
1113.7587,247
1113.9379,244
1114.1171,244
1114.2961,243
1114.4753,245
1114.6544,244
1114.8335,244
1115.0126,246
1115.1917,245
1115.3706,245
1115.5497,243
1115.7286,244
1115.9077,245
1116.0867,243
1116.2656,249
1116.4445,245
1116.6234,246
1116.8024,244
1116.9812,245
1117.16,244
1117.3389,246
