Date and Time:                Mon Dec 2 16:49:53.496 2024
Software Version:             4.32.30091.0
Temperature (C):              -80
Model:                        DU420_OE
Data Type:                    Counts
Acquisition Mode:             Single Scan
Trigger Mode:                 Internal
Exposure Time (secs):         100
Readout Mode:                 Full Vertical Binning
Horizontal binning:           1
Shutter Mode:                 Fully AUTO
TTL level:                    High
Time to open:                 10 ms
Time to close:                0 ms
Extended Data Range:          off
Horizontally flipped:         false
Vertical Shift Speed (usecs): 32.25
Pixel Readout Time (usecs):   10
Serial Number:                CCD-28590
Pre-Amplifier Gain:           1.7x
Spurious Noise Filter Mode:   No Filter
Photon counted:               false
Data Averaging Filter Mode:   No Filter
KY193i:
Serial Number:                KY-4498
Wavelength (nm):              996.12
Grating Groove Density (l/mm):600
Grating Blaze:                1000nm



898.84534,245
899.03784,245
899.23035,244
899.42291,246
899.61536,245
899.80786,245
900.00037,246
900.19287,243
900.38531,247
900.57782,242
900.77026,244
900.96271,243
901.15515,243
901.3476,244
901.54004,246
901.73248,246
901.92493,245
902.11731,244
902.30975,245
902.50214,245
902.69452,243
902.8869,246
903.07928,243
903.27167,244
903.46405,243
903.65643,246
903.84875,247
904.04114,245
904.23346,245
904.42578,245
904.6181,248
904.81042,243
905.00275,243
905.19507,245
905.38733,245
905.57965,246
905.77191,244
905.96423,247
906.15649,243
906.34875,246
906.54102,244
906.73328,244
906.92548,245
907.11774,244
907.30994,245
907.5022,246
907.6944,246
907.8866,242
908.0788,245
908.271,245
908.4632,244
908.65533,244
908.84753,243
909.03967,245
909.23187,245
909.42401,244
909.61615,244
909.80829,246
910.00043,244
910.1925,242
910.38464,244
910.57678,244
910.76886,244
910.96094,245
911.15302,245
911.34509,243
911.53717,246
911.72925,243
911.92133,244
912.11334,245
912.30536,245
912.49744,245
912.68945,244
912.88147,245
913.07349,246
913.2655,246
913.45746,247
913.64948,245
913.84143,243
914.03345,248
914.2254,246
914.41736,244
914.60931,245
914.80121,247
914.99316,244
915.18512,246
915.37701,247
915.56891,247
915.76086,249
915.95276,248
916.14465,246
916.33649,247
916.52838,247
916.72028,246
916.91211,244
917.10394,245
917.29584,244
917.48767,246
917.6795,246
917.87134,247
918.06311,247
918.25494,245
918.44672,248
918.63849,246
918.83032,248
919.02209,247
919.21387,247
919.40558,246
919.59735,248
919.78912,247
919.98083,249
920.17255,247
920.36432,248
920.55603,249
920.74768,246
920.93939,250
921.1311,250
921.32275,247
921.51447,250
921.70612,249
921.89777,248
922.08942,248
922.28107,250
922.47272,251
922.66431,251
922.85596,249
923.04755,249
923.23914,253
923.43073,252
923.62231,251
923.8139,251
924.00549,250
924.19702,249
924.38861,247
924.58014,254
924.77167,254
924.9632,252
925.15472,253
925.34625,253
925.53778,253
925.72925,255
925.92078,256
926.11224,253
926.30371,251
926.49518,252
926.68665,253
926.87805,255
927.06952,254
927.26093,256
927.45239,254
927.6438,259
927.83521,256
928.02661,255
928.21796,259
928.40936,259
928.60071,259
928.79211,259
928.98346,258
929.1748,259
929.36615,258
929.5575,258
929.74878,258
929.94012,259
930.13141,259
930.32275,257
930.51404,260
930.70532,263
930.89655,268
931.08783,301
931.27911,334
931.47034,338
931.66156,343
931.85278,309
932.04401,402
932.23523,623
932.42645,285
932.61768,261
932.80884,264
933,261
933.19116,264
933.38232,259
933.57349,264
933.76465,263
933.95581,267
934.14691,263
934.33801,268
934.52917,268
934.72028,266
934.91138,264
935.10242,263
935.29352,264
935.48456,267
935.67566,268
935.8667,265
936.05774,266
936.24878,268
936.43976,268
936.6308,265
936.82184,265
937.01282,268
937.2038,268
937.39478,263
937.58575,267
937.77673,265
937.96765,267
938.15863,266
938.34955,272
938.54047,267
938.73138,269
938.9223,273
939.11322,269
939.30408,270
939.495,271
939.68585,271
939.87671,267
940.06757,273
940.25842,272
940.44928,274
940.64008,276
940.83093,270
941.02173,272
941.21252,271
941.40332,274
941.59412,268
941.78485,272
941.97565,274
942.16638,276
942.35712,273
942.54785,277
942.73859,274
942.92932,274
943.12006,276
943.31073,272
943.5014,278
943.69214,277
943.88281,279
944.07349,281
944.2641,273
944.45477,280
944.64539,278
944.836,281
945.02667,284
945.21729,284
945.40784,286
945.59845,287
945.789,283
945.97961,285
946.17017,286
946.36072,289
946.55127,287
946.74182,293
946.93231,289
947.12286,291
947.31335,292
947.50385,289
947.69434,288
947.88483,292
948.07532,295
948.26575,292
948.45618,294
948.64667,293
948.8371,294
949.02747,299
949.2179,294
949.40833,295
949.59869,304
949.78906,297
949.97949,293
950.16986,302
950.36017,298
950.55054,303
950.74084,299
950.93121,305
951.12152,301
951.31183,299
951.50214,302
951.69238,299
951.88269,303
952.07294,303
952.26324,315
952.45349,311
952.64374,306
952.83392,310
953.02417,316
953.21436,318
953.4046,319
953.59479,318
953.78497,323
953.9751,320
954.16528,322
954.35547,324
954.54559,323
954.73572,331
954.92584,335
955.11597,345
955.30603,344
955.49615,344
955.68622,347
955.87634,352
956.06641,351
956.25641,352
956.44647,352
956.63654,359
956.82654,360
957.01654,371
957.20654,377
957.39655,379
957.58655,385
957.77649,391
957.96649,384
958.15643,392
958.34637,393
958.53632,395
958.72626,398
958.91614,398
959.10608,402
959.29596,407
959.48584,398
959.67572,407
959.8656,399
960.05542,397
960.2453,399
960.43512,403
960.62494,393
960.81476,396
961.00458,390
961.19434,383
961.38416,389
961.57391,381
961.76367,383
961.95343,375
962.14319,377
962.33289,373
962.52264,368
962.71234,364
962.90204,367
963.09174,361
963.28143,357
963.47107,366
963.66077,360
963.8504,357
964.04004,351
964.22968,346
964.41925,349
964.60889,350
964.79846,342
964.9881,347
965.17767,347
965.36725,342
965.55676,336
965.74634,338
965.93585,332
966.12537,335
966.31488,341
966.50439,334
966.69391,333
966.88336,334
967.07288,339
967.26233,335
967.45178,335
967.64124,326
967.83063,336
968.02008,329
968.20947,334
968.39886,327
968.58826,331
968.77765,333
968.96704,329
969.15637,333
969.3457,338
969.53503,338
969.72437,337
969.9137,339
970.10297,335
970.2923,336
970.48157,339
970.67084,347
970.86011,347
971.04938,351
971.23859,345
971.4278,349
971.61707,348
971.80621,358
971.99542,355
972.18463,357
972.37378,361
972.56299,371
972.75214,371
972.94128,368
973.13037,358
973.31952,361
973.50861,359
973.69769,365
973.88678,369
974.07587,363
974.26495,351
974.45398,359
974.64307,354
974.83209,353
975.02112,358
975.21014,364
975.39911,358
975.58807,356
975.7771,359
975.96606,347
976.15503,361
976.34393,356
976.5329,355
976.7218,361
976.91071,363
977.09961,367
977.28851,358
977.47742,364
977.66626,369
977.8551,363
978.04395,362
978.23279,358
978.42163,361
978.61041,367
978.79926,371
978.98804,358
979.17682,374
979.36554,367
979.55432,367
979.74304,363
979.93176,365
980.12054,364
980.3092,367
980.49792,362
980.68658,364
980.87531,374
981.06396,371
981.25262,369
981.44122,372
981.62988,364
981.81848,363
982.00714,371
982.19568,362
982.38428,366
982.57288,366
982.76141,366
982.95001,361
983.13855,359
983.32703,362
983.51556,359
983.7041,360
983.89258,367
984.08105,364
984.26953,362
984.45801,360
984.64642,359
984.8349,364
985.02332,362
985.21173,362
985.40009,362
985.5885,361
985.77686,371
985.96527,365
986.15363,365
986.34192,360
986.53027,361
986.71863,370
986.90692,369
987.09521,377
987.28351,376
987.47174,381
987.66003,381
987.84827,383
988.0365,382
988.22473,380
988.41296,375
988.6012,392
988.78937,385
988.97754,383
989.16571,386
989.35388,388
989.54199,388
989.73016,399
989.91827,401
990.10638,390
990.29449,396
990.48254,406
990.67065,402
990.8587,399
991.04675,399
991.2348,409
991.42279,410
991.61084,412
991.79883,407
991.98682,397
992.1748,403
992.36273,417
992.55072,663
992.73865,750
992.92657,567
993.1145,396
993.30243,400
993.4903,395
993.67816,402
993.86609,409
994.05389,409
994.24176,398
994.42963,399
994.61743,398
994.80524,414
994.99304,398
995.18079,393
995.36859,395
995.55634,391
995.74408,395
995.93182,388
996.11957,388
996.30725,383
996.495,384
996.68268,374
996.87036,371
997.05798,379
997.24567,366
997.43329,370
997.62091,362
997.80853,357
997.99615,357
998.18372,352
998.37128,350
998.5589,352
998.7464,345
998.93396,338
999.12152,330
999.30902,326
999.49652,326
999.68402,326
999.87146,320
1000.059,316
1000.2464,314
1000.4338,312
1000.6213,311
1000.8087,303
1000.9961,303
1001.1835,298
1001.3708,305
1001.5582,298
1001.7456,297
1001.9329,298
1002.1202,291
1002.3076,298
1002.4949,294
1002.6822,296
1002.8694,292
1003.0567,288
1003.244,289
1003.4312,286
1003.6184,288
1003.8057,289
1003.9929,286
1004.1801,286
1004.3672,286
1004.5544,280
1004.7415,287
1004.9286,285
1005.1158,284
1005.3029,281
1005.4901,282
1005.6771,282
1005.8642,280
1006.0513,274
1006.2383,276
1006.4254,272
1006.6124,274
1006.7994,270
1006.9864,270
1007.1733,264
1007.3604,263
1007.5473,263
1007.7343,258
1007.9212,253
1008.1081,251
1008.295,251
1008.4819,247
1008.6688,246
1008.8557,244
1009.0425,247
1009.2294,243
1009.4162,247
1009.603,245
1009.7898,245
1009.9766,247
1010.1634,247
1010.3502,244
1010.5369,244
1010.7236,245
1010.9104,244
1011.0971,246
1011.2838,243
1011.4705,248
1011.6572,243
1011.8438,246
1012.0305,243
1012.2171,244
1012.4037,244
1012.5903,247
1012.7769,243
1012.9635,244
1013.1501,245
1013.3367,246
1013.5232,244
1013.7097,245
1013.8962,245
1014.0828,245
1014.2692,245
1014.4557,247
1014.6422,247
1014.8286,245
1015.0151,244
1015.2015,245
1015.3879,245
1015.5743,245
1015.7607,245
1015.947,246
1016.1334,244
1016.3198,247
1016.5061,243
1016.6924,246
1016.8787,245
1017.065,243
1017.2513,246
1017.4375,247
1017.6238,247
1017.81,247
1017.9962,245
1018.1824,245
1018.3687,245
1018.5548,245
1018.741,245
1018.9271,244
1019.1133,247
1019.2994,245
1019.4855,245
1019.6716,245
1019.8577,245
1020.0438,247
1020.2299,247
1020.4159,244
1020.6019,245
1020.788,243
1020.974,243
1021.16,245
1021.3459,245
1021.5319,246
1021.7178,247
1021.9038,244
1022.0897,243
1022.2756,246
1022.4615,246
1022.6474,244
1022.8333,246
1023.0192,247
1023.205,244
1023.3908,245
1023.5766,243
1023.7625,247
1023.9482,244
1024.134,247
1024.3197,247
1024.5055,245
1024.6912,243
1024.877,245
1025.0626,248
1025.2483,246
1025.434,247
1025.6196,245
1025.8053,248
1025.991,244
1026.1765,245
1026.3622,245
1026.5477,244
1026.7334,246
1026.9189,244
1027.1045,249
1027.29,247
1027.4755,244
1027.661,246
1027.8466,248
1028.032,249
1028.2174,251
1028.403,248
1028.5884,250
1028.7738,247
1028.9592,256
1029.1445,258
1029.33,260
1029.5154,252
1029.7007,249
1029.886,247
1030.0714,245
1030.2567,249
1030.442,247
1030.6272,245
1030.8125,243
1030.9978,246
1031.183,244
1031.3683,244
1031.5535,245
1031.7386,245
1031.9238,246
1032.109,245
1032.2942,248
1032.4792,247
1032.6644,246
1032.8495,246
1033.0347,244
1033.2197,249
1033.4048,246
1033.5898,243
1033.7749,244
1033.9598,246
1034.1449,247
1034.3298,245
1034.5149,246
1034.6998,246
1034.8848,246
1035.0697,245
1035.2546,244
1035.4396,249
1035.6244,247
1035.8093,244
1035.9941,246
1036.1791,245
1036.3639,244
1036.5487,245
1036.7335,244
1036.9183,247
1037.103,246
1037.2878,247
1037.4725,246
1037.6573,246
1037.842,244
1038.0267,245
1038.2114,246
1038.3961,248
1038.5808,245
1038.7654,246
1038.9501,244
1039.1346,245
1039.3192,246
1039.5039,245
1039.6885,246
1039.873,245
1040.0575,243
1040.2421,245
1040.4265,246
1040.6111,245
1040.7955,246
1040.98,244
1041.1644,245
1041.3489,245
1041.5333,243
1041.7178,245
1041.9021,246
1042.0865,245
1042.2709,245
1042.4552,246
1042.6395,247
1042.8239,244
1043.0082,245
1043.1925,246
1043.3767,243
1043.561,246
1043.7452,244
1043.9294,243
1044.1138,244
1044.298,244
1044.4821,246
1044.6663,244
1044.8505,246
1045.0345,245
1045.2188,244
1045.4028,244
1045.5869,244
1045.771,244
1045.9551,247
1046.139,243
1046.3231,246
1046.5072,246
1046.6912,246
1046.8751,246
1047.0591,242
1047.243,247
1047.427,246
1047.611,244
1047.7948,242
1047.9788,245
1048.1626,243
1048.3466,243
1048.5304,244
1048.7142,245
1048.8981,243
1049.0818,244
1049.2656,246
1049.4493,243
1049.6332,244
1049.8169,246
1050.0006,245
1050.1843,247
1050.368,247
1050.5518,245
1050.7354,244
1050.9191,244
1051.1027,246
1051.2863,246
1051.4698,243
1051.6534,248
1051.837,245
1052.0206,246
1052.2042,245
1052.3877,247
1052.5712,243
1052.7548,244
1052.9382,245
1053.1217,245
1053.3051,243
1053.4885,246
1053.672,247
1053.8553,244
1054.0388,244
1054.2222,246
1054.4055,247
1054.5889,246
1054.7722,247
1054.9554,243
1055.1388,247
1055.322,246
1055.5052,245
1055.6886,243
1055.8718,246
1056.0551,248
1056.2382,244
1056.4214,244
1056.6046,245
1056.7877,246
1056.9708,246
1057.1539,249
1057.337,244
1057.5201,245
1057.7032,247
1057.8864,244
1058.0693,248
1058.2523,247
1058.4354,247
1058.6184,248
1058.8014,246
1058.9844,249
1059.1672,245
1059.3502,246
1059.5331,244
1059.7161,244
1059.8989,246
1060.0818,246
1060.2646,245
1060.4475,245
1060.6302,246
1060.8131,244
1060.9958,248
1061.1786,246
1061.3615,252
1061.5442,250
1061.7268,249
1061.9095,251
1062.0923,250
1062.2749,253
1062.4576,260
1062.6403,263
1062.8229,277
1063.0055,281
1063.1881,290
1063.3706,303
1063.5532,330
1063.7357,362
1063.9183,407
1064.1008,396
1064.2833,341
1064.4658,292
1064.6482,283
1064.8307,398
1065.0132,1336
1065.1956,693
1065.3779,723
1065.5603,509
1065.7427,510
1065.925,570
1066.1074,415
1066.2897,252
1066.472,250
1066.6543,248
1066.8365,245
1067.0188,247
1067.201,248
1067.3833,247
1067.5654,246
1067.7477,247
1067.9298,247
1068.1119,245
1068.2942,250
1068.4763,248
1068.6583,247
1068.8405,246
1069.0226,245
1069.2046,245
1069.3866,245
1069.5686,246
1069.7506,246
1069.9326,245
1070.1146,246
1070.2966,246
1070.4785,247
1070.6604,244
1070.8424,245
1071.0243,246
1071.2061,246
1071.3879,246
1071.5698,244
1071.7516,244
1071.9335,246
1072.1152,244
1072.297,246
1072.4788,245
1072.6605,244
1072.8423,247
1073.0239,247
1073.2056,246
1073.3873,246
1073.569,245
1073.7506,243
1073.9323,246
1074.1138,247
1074.2954,247
1074.4769,242
1074.6586,243
1074.8401,245
1075.0216,247
1075.2031,246
1075.3846,246
1075.566,245
1075.7476,243
1075.929,245
1076.1104,247
1076.2917,246
1076.4731,243
1076.6545,244
1076.8359,244
1077.0172,245
1077.1986,245
1077.3799,246
1077.5612,247
1077.7424,243
1077.9237,244
1078.1049,243
1078.2861,243
1078.4673,244
1078.6486,242
1078.8297,248
1079.0109,245
1079.1919,246
1079.373,244
1079.5542,246
1079.7352,242
1079.9163,246
1080.0974,247
1080.2783,245
1080.4594,245
1080.6404,244
1080.8214,244
1081.0023,245
1081.1832,247
1081.3641,243
1081.545,244
1081.726,247
1081.9069,244
1082.0878,245
1082.2686,245
1082.4493,246
1082.6302,243
1082.811,245
1082.9917,244
1083.1725,246
1083.3533,244
1083.5339,243
1083.7146,244
1083.8954,247
1084.076,245
1084.2567,245
1084.4373,243
1084.6179,243
1084.7985,242
1084.9791,244
1085.1597,243
1085.3402,243
1085.5208,245
1085.7012,242
1085.8817,246
1086.0621,246
1086.2427,244
1086.4231,244
1086.6035,246
1086.7839,245
1086.9642,245
1087.1447,244
1087.325,247
1087.5054,244
1087.6857,247
1087.866,243
1088.0463,245
1088.2264,244
1088.4067,245
1088.5869,244
1088.7672,244
1088.9474,243
1089.1276,247
1089.3077,248
1089.4878,249
1089.668,246
1089.848,243
1090.0282,247
1090.2083,245
1090.3883,247
