Date and Time:                Mon Dec 2 16:07:36.369 2024
Software Version:             4.32.30091.0
Temperature (C):              -80
Model:                        DU420_OE
Data Type:                    Counts
Acquisition Mode:             Single Scan
Trigger Mode:                 Internal
Exposure Time (secs):         100
Readout Mode:                 Full Vertical Binning
Horizontal binning:           1
Shutter Mode:                 Fully AUTO
TTL level:                    High
Time to open:                 10 ms
Time to close:                0 ms
Extended Data Range:          off
Horizontally flipped:         false
Vertical Shift Speed (usecs): 32.25
Pixel Readout Time (usecs):   10
Serial Number:                CCD-28590
Pre-Amplifier Gain:           1.7x
Spurious Noise Filter Mode:   No Filter
Photon counted:               false
Data Averaging Filter Mode:   No Filter
KY193i:
Serial Number:                KY-4498
Wavelength (nm):              996.12
Grating Groove Density (l/mm):600
Grating Blaze:                1000nm



898.84534,244
899.03784,244
899.23035,243
899.42291,245
899.61536,245
899.80786,243
900.00037,244
900.19287,244
900.38531,245
900.57782,243
900.77026,246
900.96271,243
901.15515,245
901.3476,244
901.54004,245
901.73248,247
901.92493,244
902.11731,244
902.30975,246
902.50214,243
902.69452,243
902.8869,249
903.07928,246
903.27167,246
903.46405,245
903.65643,247
903.84875,246
904.04114,248
904.23346,243
904.42578,242
904.6181,247
904.81042,243
905.00275,246
905.19507,242
905.38733,244
905.57965,244
905.77191,247
905.96423,245
906.15649,247
906.34875,247
906.54102,247
906.73328,245
906.92548,245
907.11774,243
907.30994,246
907.5022,242
907.6944,243
907.8866,247
908.0788,245
908.271,245
908.4632,243
908.65533,244
908.84753,245
909.03967,245
909.23187,245
909.42401,245
909.61615,247
909.80829,245
910.00043,245
910.1925,244
910.38464,246
910.57678,244
910.76886,245
910.96094,246
911.15302,246
911.34509,247
911.53717,246
911.72925,246
911.92133,247
912.11334,244
912.30536,248
912.49744,249
912.68945,244
912.88147,243
913.07349,245
913.2655,244
913.45746,248
913.64948,246
913.84143,247
914.03345,249
914.2254,246
914.41736,250
914.60931,248
914.80121,244
914.99316,249
915.18512,246
915.37701,246
915.56891,247
915.76086,248
915.95276,243
916.14465,247
916.33649,247
916.52838,245
916.72028,245
916.91211,247
917.10394,246
917.29584,246
917.48767,247
917.6795,248
917.87134,245
918.06311,247
918.25494,250
918.44672,248
918.63849,248
918.83032,247
919.02209,247
919.21387,248
919.40558,248
919.59735,250
919.78912,248
919.98083,247
920.17255,248
920.36432,247
920.55603,252
920.74768,248
920.93939,250
921.1311,250
921.32275,251
921.51447,249
921.70612,254
921.89777,249
922.08942,249
922.28107,254
922.47272,251
922.66431,250
922.85596,252
923.04755,253
923.23914,248
923.43073,254
923.62231,252
923.8139,254
924.00549,252
924.19702,255
924.38861,254
924.58014,256
924.77167,253
924.9632,254
925.15472,256
925.34625,256
925.53778,256
925.72925,251
925.92078,254
926.11224,258
926.30371,254
926.49518,253
926.68665,257
926.87805,253
927.06952,259
927.26093,258
927.45239,257
927.6438,259
927.83521,260
928.02661,260
928.21796,260
928.40936,261
928.60071,262
928.79211,260
928.98346,261
929.1748,262
929.36615,261
929.5575,262
929.74878,267
929.94012,264
930.13141,263
930.32275,261
930.51404,263
930.70532,265
930.89655,269
931.08783,263
931.27911,267
931.47034,267
931.66156,265
931.85278,264
932.04401,268
932.23523,268
932.42645,267
932.61768,270
932.80884,268
933,269
933.19116,269
933.38232,267
933.57349,268
933.76465,269
933.95581,269
934.14691,268
934.33801,272
934.52917,272
934.72028,271
934.91138,269
935.10242,269
935.29352,270
935.48456,272
935.67566,276
935.8667,272
936.05774,271
936.24878,271
936.43976,269
936.6308,273
936.82184,273
937.01282,274
937.2038,274
937.39478,275
937.58575,275
937.77673,272
937.96765,274
938.15863,275
938.34955,280
938.54047,275
938.73138,274
938.9223,275
939.11322,280
939.30408,272
939.495,278
939.68585,273
939.87671,279
940.06757,277
940.25842,278
940.44928,275
940.64008,279
940.83093,278
941.02173,282
941.21252,278
941.40332,278
941.59412,276
941.78485,283
941.97565,282
942.16638,283
942.35712,285
942.54785,281
942.73859,280
942.92932,286
943.12006,285
943.31073,285
943.5014,285
943.69214,287
943.88281,294
944.07349,287
944.2641,286
944.45477,292
944.64539,289
944.836,294
945.02667,293
945.21729,298
945.40784,298
945.59845,301
945.789,294
945.97961,298
946.17017,297
946.36072,300
946.55127,305
946.74182,307
946.93231,300
947.12286,307
947.31335,301
947.50385,302
947.69434,305
947.88483,308
948.07532,307
948.26575,312
948.45618,310
948.64667,311
948.8371,308
949.02747,312
949.2179,322
949.40833,460
949.59869,1417
949.78906,507
949.97949,323
950.16986,320
950.36017,318
950.55054,325
950.74084,321
950.93121,316
951.12152,327
951.31183,321
951.50214,325
951.69238,327
951.88269,324
952.07294,324
952.26324,331
952.45349,334
952.64374,340
952.83392,332
953.02417,334
953.21436,336
953.4046,334
953.59479,343
953.78497,348
953.9751,353
954.16528,349
954.35547,358
954.54559,357
954.73572,364
954.92584,368
955.11597,369
955.30603,376
955.49615,376
955.68622,384
955.87634,388
956.06641,382
956.25641,393
956.44647,400
956.63654,404
956.82654,409
957.01654,421
957.20654,432
957.39655,423
957.58655,437
957.77649,435
957.96649,435
958.15643,445
958.34637,450
958.53632,454
958.72626,464
958.91614,445
959.10608,458
959.29596,468
959.48584,458
959.67572,462
959.8656,468
960.05542,461
960.2453,462
960.43512,454
960.62494,453
960.81476,442
961.00458,435
961.19434,429
961.38416,437
961.57391,434
961.76367,430
961.95343,428
962.14319,422
962.33289,413
962.52264,415
962.71234,402
962.90204,411
963.09174,398
963.28143,399
963.47107,400
963.66077,391
963.8504,388
964.04004,390
964.22968,394
964.41925,391
964.60889,384
964.79846,381
964.9881,384
965.17767,375
965.36725,379
965.55676,380
965.74634,375
965.93585,370
966.12537,370
966.31488,367
966.50439,365
966.69391,372
966.88336,365
967.07288,363
967.26233,364
967.45178,359
967.64124,357
967.83063,358
968.02008,362
968.20947,357
968.39886,369
968.58826,366
968.77765,370
968.96704,365
969.15637,362
969.3457,364
969.53503,366
969.72437,370
969.9137,363
970.10297,371
970.2923,381
970.48157,379
970.67084,383
970.86011,389
971.04938,384
971.23859,378
971.4278,384
971.61707,386
971.80621,394
971.99542,398
972.18463,400
972.37378,403
972.56299,399
972.75214,408
972.94128,408
973.13037,402
973.31952,408
973.50861,400
973.69769,401
973.88678,400
974.07587,403
974.26495,400
974.45398,402
974.64307,394
974.83209,407
975.02112,399
975.21014,410
975.39911,398
975.58807,398
975.7771,405
975.96606,391
976.15503,409
976.34393,403
976.5329,397
976.7218,401
976.91071,407
977.09961,409
977.28851,397
977.47742,409
977.66626,414
977.8551,408
978.04395,409
978.23279,398
978.42163,406
978.61041,418
978.79926,409
978.98804,405
979.17682,404
979.36554,406
979.55432,414
979.74304,404
979.93176,413
980.12054,404
980.3092,408
980.49792,400
980.68658,403
980.87531,408
981.06396,399
981.25262,410
981.44122,408
981.62988,406
981.81848,404
982.00714,405
982.19568,403
982.38428,406
982.57288,410
982.76141,413
982.95001,403
983.13855,404
983.32703,407
983.51556,406
983.7041,403
983.89258,408
984.08105,398
984.26953,397
984.45801,403
984.64642,410
984.8349,411
985.02332,403
985.21173,407
985.40009,413
985.5885,409
985.77686,414
985.96527,411
986.15363,411
986.34192,415
986.53027,420
986.71863,405
986.90692,409
987.09521,420
987.28351,431
987.47174,430
987.66003,422
987.84827,434
988.0365,424
988.22473,432
988.41296,433
988.6012,434
988.78937,439
988.97754,439
989.16571,442
989.35388,439
989.54199,454
989.73016,441
989.91827,459
990.10638,461
990.29449,458
990.48254,463
990.67065,467
990.8587,456
991.04675,456
991.2348,460
991.42279,467
991.61084,474
991.79883,474
991.98682,470
992.1748,468
992.36273,472
992.55072,477
992.73865,473
992.92657,475
993.1145,464
993.30243,462
993.4903,458
993.67816,468
993.86609,466
994.05389,464
994.24176,463
994.42963,461
994.61743,460
994.80524,467
994.99304,459
995.18079,455
995.36859,450
995.55634,442
995.74408,443
995.93182,443
996.11957,449
996.30725,439
996.495,445
996.68268,422
996.87036,430
997.05798,427
997.24567,419
997.43329,412
997.62091,408
997.80853,400
997.99615,401
998.18372,384
998.37128,392
998.5589,387
998.7464,381
998.93396,361
999.12152,367
999.30902,364
999.49652,354
999.68402,347
999.87146,346
1000.059,343
1000.2464,339
1000.4338,330
1000.6213,333
1000.8087,328
1000.9961,322
1001.1835,318
1001.3708,320
1001.5582,315
1001.7456,309
1001.9329,312
1002.1202,312
1002.3076,313
1002.4949,315
1002.6822,307
1002.8694,307
1003.0567,299
1003.244,299
1003.4312,298
1003.6184,299
1003.8057,297
1003.9929,293
1004.1801,295
1004.3672,296
1004.5544,298
1004.7415,295
1004.9286,298
1005.1158,297
1005.3029,294
1005.4901,299
1005.6771,288
1005.8642,287
1006.0513,289
1006.2383,283
1006.4254,284
1006.6124,278
1006.7994,278
1006.9864,272
1007.1733,273
1007.3604,269
1007.5473,262
1007.7343,264
1007.9212,256
1008.1081,252
1008.295,249
1008.4819,248
1008.6688,247
1008.8557,248
1009.0425,247
1009.2294,243
1009.4162,246
1009.603,246
1009.7898,247
1009.9766,244
1010.1634,248
1010.3502,248
1010.5369,245
1010.7236,249
1010.9104,244
1011.0971,247
1011.2838,244
1011.4705,245
1011.6572,247
1011.8438,245
1012.0305,244
1012.2171,244
1012.4037,244
1012.5903,247
1012.7769,245
1012.9635,243
1013.1501,244
1013.3367,247
1013.5232,244
1013.7097,244
1013.8962,243
1014.0828,247
1014.2692,246
1014.4557,246
1014.6422,245
1014.8286,247
1015.0151,245
1015.2015,245
1015.3879,245
1015.5743,244
1015.7607,244
1015.947,245
1016.1334,248
1016.3198,246
1016.5061,242
1016.6924,244
1016.8787,246
1017.065,244
1017.2513,244
1017.4375,245
1017.6238,245
1017.81,246
1017.9962,246
1018.1824,247
1018.3687,246
1018.5548,245
1018.741,244
1018.9271,244
1019.1133,245
1019.2994,245
1019.4855,245
1019.6716,245
1019.8577,245
1020.0438,246
1020.2299,245
1020.4159,246
1020.6019,245
1020.788,246
1020.974,243
1021.16,241
1021.3459,246
1021.5319,246
1021.7178,247
1021.9038,247
1022.0897,246
1022.2756,245
1022.4615,246
1022.6474,243
1022.8333,247
1023.0192,244
1023.205,247
1023.3908,245
1023.5766,247
1023.7625,245
1023.9482,247
1024.134,245
1024.3197,245
1024.5055,247
1024.6912,244
1024.877,245
1025.0626,247
1025.2483,249
1025.434,244
1025.6196,246
1025.8053,244
1025.991,244
1026.1765,246
1026.3622,242
1026.5477,244
1026.7334,244
1026.9189,245
1027.1045,245
1027.29,244
1027.4755,245
1027.661,244
1027.8466,247
1028.032,245
1028.2174,247
1028.403,251
1028.5884,250
1028.7738,251
1028.9592,255
1029.1445,265
1029.33,261
1029.5154,258
1029.7007,249
1029.886,245
1030.0714,243
1030.2567,247
1030.442,244
1030.6272,243
1030.8125,244
1030.9978,246
1031.183,244
1031.3683,244
1031.5535,246
1031.7386,247
1031.9238,245
1032.109,245
1032.2942,245
1032.4792,244
1032.6644,246
1032.8495,245
1033.0347,246
1033.2197,247
1033.4048,246
1033.5898,245
1033.7749,243
1033.9598,243
1034.1449,245
1034.3298,246
1034.5149,244
1034.6998,245
1034.8848,246
1035.0697,244
1035.2546,244
1035.4396,247
1035.6244,248
1035.8093,246
1035.9941,247
1036.1791,243
1036.3639,244
1036.5487,244
1036.7335,245
1036.9183,244
1037.103,247
1037.2878,244
1037.4725,244
1037.6573,245
1037.842,244
1038.0267,247
1038.2114,246
1038.3961,245
1038.5808,244
1038.7654,245
1038.9501,243
1039.1346,244
1039.3192,245
1039.5039,247
1039.6885,245
1039.873,245
1040.0575,244
1040.2421,244
1040.4265,244
1040.6111,243
1040.7955,246
1040.98,247
1041.1644,246
1041.3489,562
1041.5333,764
1041.7178,247
1041.9021,248
1042.0865,243
1042.2709,246
1042.4552,244
1042.6395,246
1042.8239,244
1043.0082,245
1043.1925,246
1043.3767,245
1043.561,243
1043.7452,244
1043.9294,246
1044.1138,243
1044.298,244
1044.4821,246
1044.6663,245
1044.8505,245
1045.0345,245
1045.2188,243
1045.4028,243
1045.5869,243
1045.771,245
1045.9551,248
1046.139,245
1046.3231,245
1046.5072,246
1046.6912,245
1046.8751,248
1047.0591,243
1047.243,244
1047.427,244
1047.611,242
1047.7948,244
1047.9788,243
1048.1626,246
1048.3466,242
1048.5304,245
1048.7142,245
1048.8981,245
1049.0818,244
1049.2656,243
1049.4493,244
1049.6332,245
1049.8169,245
1050.0006,247
1050.1843,246
1050.368,244
1050.5518,246
1050.7354,243
1050.9191,245
1051.1027,246
1051.2863,244
1051.4698,243
1051.6534,244
1051.837,241
1052.0206,245
1052.2042,246
1052.3877,244
1052.5712,245
1052.7548,242
1052.9382,244
1053.1217,246
1053.3051,244
1053.4885,249
1053.672,245
1053.8553,245
1054.0388,245
1054.2222,243
1054.4055,243
1054.5889,244
1054.7722,246
1054.9554,244
1055.1388,245
1055.322,247
1055.5052,244
1055.6886,244
1055.8718,244
1056.0551,247
1056.2382,245
1056.4214,246
1056.6046,244
1056.7877,246
1056.9708,246
1057.1539,245
1057.337,244
1057.5201,244
1057.7032,247
1057.8864,246
1058.0693,245
1058.2523,246
1058.4354,247
1058.6184,246
1058.8014,244
1058.9844,249
1059.1672,247
1059.3502,245
1059.5331,244
1059.7161,247
1059.8989,248
1060.0818,247
1060.2646,249
1060.4475,246
1060.6302,248
1060.8131,249
1060.9958,249
1061.1786,249
1061.3615,251
1061.5442,250
1061.7268,249
1061.9095,257
1062.0923,313
1062.2749,430
1062.4576,267
1062.6403,273
1062.8229,290
1063.0055,303
1063.1881,310
1063.3706,320
1063.5532,372
1063.7357,425
1063.9183,503
1064.1008,510
1064.2833,411
1064.4658,338
1064.6482,298
1064.8307,274
1065.0132,264
1065.1956,256
1065.3779,255
1065.5603,252
1065.7427,253
1065.925,253
1066.1074,253
1066.2897,251
1066.472,251
1066.6543,245
1066.8365,247
1067.0188,251
1067.201,251
1067.3833,248
1067.5654,246
1067.7477,246
1067.9298,246
1068.1119,250
1068.2942,245
1068.4763,244
1068.6583,246
1068.8405,246
1069.0226,244
1069.2046,247
1069.3866,245
1069.5686,244
1069.7506,246
1069.9326,244
1070.1146,247
1070.2966,243
1070.4785,246
1070.6604,247
1070.8424,246
1071.0243,248
1071.2061,246
1071.3879,244
1071.5698,246
1071.7516,245
1071.9335,243
1072.1152,243
1072.297,247
1072.4788,245
1072.6605,245
1072.8423,245
1073.0239,242
1073.2056,244
1073.3873,246
1073.569,245
1073.7506,245
1073.9323,243
1074.1138,246
1074.2954,245
1074.4769,244
1074.6586,246
1074.8401,245
1075.0216,246
1075.2031,246
1075.3846,244
1075.566,242
1075.7476,244
1075.929,244
1076.1104,244
1076.2917,246
1076.4731,244
1076.6545,245
1076.8359,246
1077.0172,245
1077.1986,247
1077.3799,244
1077.5612,243
1077.7424,241
1077.9237,247
1078.1049,244
1078.2861,243
1078.4673,243
1078.6486,246
1078.8297,247
1079.0109,243
1079.1919,242
1079.373,243
1079.5542,245
1079.7352,244
1079.9163,245
1080.0974,244
1080.2783,244
1080.4594,242
1080.6404,245
1080.8214,245
1081.0023,244
1081.1832,245
1081.3641,247
1081.545,243
1081.726,242
1081.9069,244
1082.0878,245
1082.2686,244
1082.4493,248
1082.6302,246
1082.811,245
1082.9917,243
1083.1725,246
1083.3533,242
1083.5339,243
1083.7146,246
1083.8954,250
1084.076,245
1084.2567,245
1084.4373,245
1084.6179,245
1084.7985,243
1084.9791,243
1085.1597,244
1085.3402,245
1085.5208,244
1085.7012,245
1085.8817,246
1086.0621,245
1086.2427,244
1086.4231,244
1086.6035,241
1086.7839,247
1086.9642,244
1087.1447,244
1087.325,244
1087.5054,244
1087.6857,246
1087.866,244
1088.0463,245
1088.2264,244
1088.4067,244
1088.5869,243
1088.7672,243
1088.9474,245
1089.1276,244
1089.3077,248
1089.4878,246
1089.668,242
1089.848,246
1090.0282,245
1090.2083,244
1090.3883,250
