Date and Time:                Mon Dec 2 16:52:13.388 2024
Software Version:             4.32.30091.0
Temperature (C):              -80
Model:                        DU420_OE
Data Type:                    Counts
Acquisition Mode:             Single Scan
Trigger Mode:                 Internal
Exposure Time (secs):         100
Readout Mode:                 Full Vertical Binning
Horizontal binning:           1
Shutter Mode:                 Fully AUTO
TTL level:                    High
Time to open:                 10 ms
Time to close:                0 ms
Extended Data Range:          off
Horizontally flipped:         false
Vertical Shift Speed (usecs): 32.25
Pixel Readout Time (usecs):   10
Serial Number:                CCD-28590
Pre-Amplifier Gain:           1.7x
Spurious Noise Filter Mode:   No Filter
Photon counted:               false
Data Averaging Filter Mode:   No Filter
KY193i:
Serial Number:                KY-4498
Wavelength (nm):              996.12
Grating Groove Density (l/mm):600
Grating Blaze:                1000nm



898.84534,245
899.03784,244
899.23035,247
899.42291,248
899.61536,244
899.80786,247
900.00037,249
900.19287,248
900.38531,248
900.57782,248
900.77026,248
900.96271,247
901.15515,245
901.3476,247
901.54004,247
901.73248,245
901.92493,247
902.11731,249
902.30975,248
902.50214,250
902.69452,249
902.8869,251
903.07928,246
903.27167,247
903.46405,247
903.65643,245
903.84875,248
904.04114,249
904.23346,249
904.42578,248
904.6181,249
904.81042,247
905.00275,249
905.19507,248
905.38733,249
905.57965,244
905.77191,251
905.96423,251
906.15649,249
906.34875,250
906.54102,251
906.73328,249
906.92548,251
907.11774,249
907.30994,250
907.5022,251
907.6944,251
907.8866,251
908.0788,250
908.271,251
908.4632,252
908.65533,251
908.84753,252
909.03967,251
909.23187,251
909.42401,249
909.61615,250
909.80829,251
910.00043,252
910.1925,253
910.38464,251
910.57678,251
910.76886,251
910.96094,252
911.15302,250
911.34509,251
911.53717,252
911.72925,253
911.92133,251
912.11334,252
912.30536,256
912.49744,256
912.68945,254
912.88147,255
913.07349,251
913.2655,251
913.45746,252
913.64948,256
913.84143,252
914.03345,256
914.2254,257
914.41736,257
914.60931,256
914.80121,259
914.99316,255
915.18512,257
915.37701,258
915.56891,257
915.76086,258
915.95276,260
916.14465,255
916.33649,260
916.52838,260
916.72028,260
916.91211,259
917.10394,257
917.29584,266
917.48767,259
917.6795,264
917.87134,261
918.06311,260
918.25494,261
918.44672,264
918.63849,266
918.83032,269
919.02209,374
919.21387,1549
919.40558,1587
919.59735,327
919.78912,267
919.98083,269
920.17255,270
920.36432,270
920.55603,267
920.74768,276
920.93939,271
921.1311,273
921.32275,278
921.51447,273
921.70612,275
921.89777,274
922.08942,275
922.28107,279
922.47272,520
922.66431,496
922.85596,290
923.04755,282
923.23914,283
923.43073,287
923.62231,290
923.8139,289
924.00549,293
924.19702,293
924.38861,292
924.58014,294
924.77167,294
924.9632,293
925.15472,298
925.34625,296
925.53778,305
925.72925,298
925.92078,299
926.11224,306
926.30371,307
926.49518,302
926.68665,308
926.87805,305
927.06952,305
927.26093,304
927.45239,316
927.6438,313
927.83521,318
928.02661,326
928.21796,329
928.40936,329
928.60071,325
928.79211,336
928.98346,337
929.1748,333
929.36615,342
929.5575,335
929.74878,334
929.94012,338
930.13141,340
930.32275,341
930.51404,345
930.70532,342
930.89655,351
931.08783,350
931.27911,345
931.47034,351
931.66156,354
931.85278,365
932.04401,557
932.23523,528
932.42645,364
932.61768,362
932.80884,358
933,366
933.19116,363
933.38232,366
933.57349,360
933.76465,357
933.95581,366
934.14691,371
934.33801,363
934.52917,374
934.72028,376
934.91138,381
935.10242,372
935.29352,373
935.48456,380
935.67566,382
935.8667,381
936.05774,377
936.24878,386
936.43976,383
936.6308,388
936.82184,386
937.01282,385
937.2038,390
937.39478,385
937.58575,391
937.77673,384
937.96765,389
938.15863,395
938.34955,388
938.54047,401
938.73138,401
938.9223,401
939.11322,400
939.30408,393
939.495,409
939.68585,402
939.87671,409
940.06757,407
940.25842,394
940.44928,410
940.64008,406
940.83093,415
941.02173,414
941.21252,420
941.40332,422
941.59412,418
941.78485,427
941.97565,557
942.16638,589
942.35712,443
942.54785,438
942.73859,436
942.92932,436
943.12006,442
943.31073,447
943.5014,451
943.69214,456
943.88281,473
944.07349,476
944.2641,464
944.45477,463
944.64539,476
944.836,480
945.02667,469
945.21729,498
945.40784,498
945.59845,495
945.789,507
945.97961,508
946.17017,509
946.36072,522
946.55127,519
946.74182,519
946.93231,525
947.12286,533
947.31335,547
947.50385,533
947.69434,539
947.88483,549
948.07532,550
948.26575,553
948.45618,564
948.64667,555
948.8371,554
949.02747,577
949.2179,562
949.40833,572
949.59869,584
949.78906,591
949.97949,594
950.16986,598
950.36017,618
950.55054,618
950.74084,612
950.93121,635
951.12152,620
951.31183,612
951.50214,643
951.69238,637
951.88269,642
952.07294,650
952.26324,657
952.45349,670
952.64374,675
952.83392,664
953.02417,704
953.21436,711
953.4046,714
953.59479,727
953.78497,752
953.9751,753
954.16528,763
954.35547,773
954.54559,805
954.73572,817
954.92584,828
955.11597,832
955.30603,872
955.49615,876
955.68622,880
955.87634,902
956.06641,932
956.25641,940
956.44647,964
956.63654,971
956.82654,1000
957.01654,1045
957.20654,1061
957.39655,1050
957.58655,1098
957.77649,1108
957.96649,1115
958.15643,1120
958.34637,1129
958.53632,1147
958.72626,1170
958.91614,1153
959.10608,1193
959.29596,1187
959.48584,1220
959.67572,1199
959.8656,1180
960.05542,1181
960.2453,1167
960.43512,1171
960.62494,1167
960.81476,1155
961.00458,1142
961.19434,1094
961.38416,1107
961.57391,1106
961.76367,1099
961.95343,1059
962.14319,1035
962.33289,1048
962.52264,1007
962.71234,1001
962.90204,1018
963.09174,1014
963.28143,990
963.47107,975
963.66077,973
963.8504,969
964.04004,942
964.22968,929
964.41925,923
964.60889,909
964.79846,894
964.9881,903
965.17767,904
965.36725,888
965.55676,854
965.74634,874
965.93585,851
966.12537,839
966.31488,851
966.50439,807
966.69391,815
966.88336,819
967.07288,811
967.26233,824
967.45178,832
967.64124,830
967.83063,825
968.02008,811
968.20947,817
968.39886,825
968.58826,830
968.77765,809
968.96704,825
969.15637,819
969.3457,825
969.53503,833
969.72437,841
969.9137,820
970.10297,843
970.2923,855
970.48157,859
970.67084,883
970.86011,902
971.04938,888
971.23859,911
971.4278,901
971.61707,942
971.80621,944
971.99542,937
972.18463,929
972.37378,988
972.56299,982
972.75214,1017
972.94128,1003
973.13037,1007
973.31952,1001
973.50861,995
973.69769,978
973.88678,971
974.07587,986
974.26495,977
974.45398,988
974.64307,985
974.83209,1005
975.02112,1020
975.21014,1012
975.39911,1005
975.58807,980
975.7771,981
975.96606,971
976.15503,1007
976.34393,1010
976.5329,1029
976.7218,1019
976.91071,1025
977.09961,1014
977.28851,999
977.47742,1005
977.66626,1022
977.8551,1020
978.04395,1016
978.23279,1001
978.42163,1003
978.61041,1019
978.79926,1024
978.98804,1009
979.17682,998
979.36554,1036
979.55432,1031
979.74304,998
979.93176,998
980.12054,993
980.3092,979
980.49792,1010
980.68658,1003
980.87531,1012
981.06396,1021
981.25262,1042
981.44122,1009
981.62988,996
981.81848,1012
982.00714,1005
982.19568,992
982.38428,1016
982.57288,1004
982.76141,1009
982.95001,991
983.13855,1022
983.32703,1000
983.51556,994
983.7041,973
983.89258,982
984.08105,975
984.26953,993
984.45801,996
984.64642,967
984.8349,991
985.02332,991
985.21173,1010
985.40009,1027
985.5885,1028
985.77686,1018
985.96527,1006
986.15363,1002
986.34192,1027
986.53027,1038
986.71863,1027
986.90692,1022
987.09521,1054
987.28351,1085
987.47174,1051
987.66003,1063
987.84827,1093
988.0365,1096
988.22473,1097
988.41296,1104
988.6012,1117
988.78937,1107
988.97754,1104
989.16571,1123
989.35388,1135
989.54199,1123
989.73016,1159
989.91827,1185
990.10638,1166
990.29449,1164
990.48254,1184
990.67065,1176
990.8587,1208
991.04675,1229
991.2348,1228
991.42279,1233
991.61084,1247
991.79883,1204
991.98682,1198
992.1748,1195
992.36273,1212
992.55072,1232
992.73865,1219
992.92657,1194
993.1145,1156
993.30243,1137
993.4903,1180
993.67816,1208
993.86609,1188
994.05389,1146
994.24176,1142
994.42963,1150
994.61743,1152
994.80524,1177
994.99304,1137
995.18079,1122
995.36859,1125
995.55634,1138
995.74408,1111
995.93182,1108
996.11957,1091
996.30725,1079
996.495,1055
996.68268,1051
996.87036,1032
997.05798,1000
997.24567,989
997.43329,961
997.62091,956
997.80853,931
997.99615,891
998.18372,889
998.37128,848
998.5589,835
998.7464,827
998.93396,804
999.12152,783
999.30902,739
999.49652,733
999.68402,703
999.87146,688
1000.059,665
1000.2464,640
1000.4338,634
1000.6213,616
1000.8087,604
1000.9961,586
1001.1835,573
1001.3708,560
1001.5582,545
1001.7456,544
1001.9329,541
1002.1202,537
1002.3076,532
1002.4949,541
1002.6822,526
1002.8694,508
1003.0567,505
1003.244,495
1003.4312,502
1003.6184,504
1003.8057,476
1003.9929,473
1004.1801,475
1004.3672,468
1004.5544,460
1004.7415,467
1004.9286,453
1005.1158,461
1005.3029,450
1005.4901,450
1005.6771,441
1005.8642,437
1006.0513,419
1006.2383,406
1006.4254,403
1006.6124,400
1006.7994,378
1006.9864,374
1007.1733,362
1007.3604,342
1007.5473,329
1007.7343,305
1007.9212,283
1008.1081,269
1008.295,263
1008.4819,258
1008.6688,252
1008.8557,253
1009.0425,248
1009.2294,248
1009.4162,249
1009.603,250
1009.7898,249
1009.9766,248
1010.1634,250
1010.3502,248
1010.5369,248
1010.7236,245
1010.9104,247
1011.0971,247
1011.2838,247
1011.4705,249
1011.6572,249
1011.8438,248
1012.0305,248
1012.2171,249
1012.4037,247
1012.5903,246
1012.7769,247
1012.9635,245
1013.1501,247
1013.3367,244
1013.5232,250
1013.7097,246
1013.8962,246
1014.0828,248
1014.2692,246
1014.4557,249
1014.6422,252
1014.8286,417
1015.0151,379
1015.2015,251
1015.3879,247
1015.5743,248
1015.7607,248
1015.947,247
1016.1334,249
1016.3198,247
1016.5061,245
1016.6924,246
1016.8787,246
1017.065,248
1017.2513,245
1017.4375,245
1017.6238,245
1017.81,245
1017.9962,245
1018.1824,245
1018.3687,245
1018.5548,244
1018.741,246
1018.9271,247
1019.1133,248
1019.2994,245
1019.4855,245
1019.6716,248
1019.8577,248
1020.0438,245
1020.2299,250
1020.4159,249
1020.6019,249
1020.788,248
1020.974,244
1021.16,246
1021.3459,245
1021.5319,246
1021.7178,246
1021.9038,251
1022.0897,246
1022.2756,246
1022.4615,247
1022.6474,244
1022.8333,247
1023.0192,248
1023.205,248
1023.3908,246
1023.5766,244
1023.7625,246
1023.9482,246
1024.134,245
1024.3197,246
1024.5055,247
1024.6912,245
1024.877,245
1025.0626,250
1025.2483,248
1025.434,246
1025.6196,246
1025.8053,245
1025.991,246
1026.1765,246
1026.3622,245
1026.5477,247
1026.7334,245
1026.9189,247
1027.1045,246
1027.29,247
1027.4755,249
1027.661,249
1027.8466,252
1028.032,256
1028.2174,261
1028.403,264
1028.5884,265
1028.7738,273
1028.9592,295
1029.1445,320
1029.33,306
1029.5154,272
1029.7007,262
1029.886,253
1030.0714,249
1030.2567,246
1030.442,249
1030.6272,247
1030.8125,247
1030.9978,245
1031.183,245
1031.3683,246
1031.5535,245
1031.7386,246
1031.9238,246
1032.109,246
1032.2942,245
1032.4792,245
1032.6644,246
1032.8495,247
1033.0347,246
1033.2197,247
1033.4048,246
1033.5898,246
1033.7749,246
1033.9598,246
1034.1449,246
1034.3298,243
1034.5149,246
1034.6998,246
1034.8848,247
1035.0697,245
1035.2546,243
1035.4396,245
1035.6244,247
1035.8093,245
1035.9941,246
1036.1791,245
1036.3639,246
1036.5487,247
1036.7335,246
1036.9183,243
1037.103,244
1037.2878,245
1037.4725,245
1037.6573,244
1037.842,247
1038.0267,247
1038.2114,244
1038.3961,245
1038.5808,245
1038.7654,246
1038.9501,246
1039.1346,246
1039.3192,247
1039.5039,247
1039.6885,244
1039.873,244
1040.0575,247
1040.2421,248
1040.4265,245
1040.6111,244
1040.7955,246
1040.98,244
1041.1644,246
1041.3489,247
1041.5333,246
1041.7178,246
1041.9021,246
1042.0865,245
1042.2709,246
1042.4552,246
1042.6395,246
1042.8239,244
1043.0082,243
1043.1925,244
1043.3767,245
1043.561,245
1043.7452,246
1043.9294,245
1044.1138,246
1044.298,244
1044.4821,246
1044.6663,245
1044.8505,245
1045.0345,242
1045.2188,245
1045.4028,246
1045.5869,246
1045.771,243
1045.9551,246
1046.139,245
1046.3231,243
1046.5072,246
1046.6912,244
1046.8751,246
1047.0591,245
1047.243,245
1047.427,244
1047.611,245
1047.7948,246
1047.9788,244
1048.1626,246
1048.3466,247
1048.5304,244
1048.7142,244
1048.8981,247
1049.0818,247
1049.2656,247
1049.4493,245
1049.6332,249
1049.8169,247
1050.0006,247
1050.1843,245
1050.368,246
1050.5518,247
1050.7354,244
1050.9191,242
1051.1027,247
1051.2863,245
1051.4698,246
1051.6534,246
1051.837,243
1052.0206,244
1052.2042,247
1052.3877,244
1052.5712,245
1052.7548,244
1052.9382,245
1053.1217,245
1053.3051,245
1053.4885,245
1053.672,248
1053.8553,246
1054.0388,244
1054.2222,246
1054.4055,243
1054.5889,247
1054.7722,245
1054.9554,244
1055.1388,246
1055.322,247
1055.5052,246
1055.6886,246
1055.8718,247
1056.0551,245
1056.2382,243
1056.4214,249
1056.6046,244
1056.7877,246
1056.9708,249
1057.1539,246
1057.337,247
1057.5201,244
1057.7032,244
1057.8864,243
1058.0693,245
1058.2523,246
1058.4354,248
1058.6184,248
1058.8014,247
1058.9844,247
1059.1672,249
1059.3502,247
1059.5331,246
1059.7161,245
1059.8989,247
1060.0818,246
1060.2646,246
1060.4475,246
1060.6302,248
1060.8131,248
1060.9958,245
1061.1786,244
1061.3615,248
1061.5442,249
1061.7268,249
1061.9095,252
1062.0923,252
1062.2749,254
1062.4576,261
1062.6403,260
1062.8229,274
1063.0055,283
1063.1881,285
1063.3706,296
1063.5532,319
1063.7357,358
1063.9183,383
1064.1008,383
1064.2833,328
1064.4658,296
1064.6482,272
1064.8307,262
1065.0132,254
1065.1956,252
1065.3779,251
1065.5603,248
1065.7427,249
1065.925,251
1066.1074,247
1066.2897,248
1066.472,250
1066.6543,249
1066.8365,250
1067.0188,250
1067.201,248
1067.3833,251
1067.5654,246
1067.7477,244
1067.9298,245
1068.1119,249
1068.2942,244
1068.4763,248
1068.6583,249
1068.8405,247
1069.0226,246
1069.2046,247
1069.3866,246
1069.5686,249
1069.7506,245
1069.9326,246
1070.1146,248
1070.2966,249
1070.4785,245
1070.6604,244
1070.8424,244
1071.0243,246
1071.2061,245
1071.3879,248
1071.5698,248
1071.7516,250
1071.9335,247
1072.1152,244
1072.297,246
1072.4788,246
1072.6605,244
1072.8423,247
1073.0239,246
1073.2056,247
1073.3873,246
1073.569,246
1073.7506,246
1073.9323,245
1074.1138,245
1074.2954,245
1074.4769,247
1074.6586,247
1074.8401,244
1075.0216,245
1075.2031,246
1075.3846,247
1075.566,246
1075.7476,243
1075.929,244
1076.1104,246
1076.2917,246
1076.4731,246
1076.6545,245
1076.8359,246
1077.0172,244
1077.1986,246
1077.3799,247
1077.5612,244
1077.7424,245
1077.9237,246
1078.1049,244
1078.2861,246
1078.4673,245
1078.6486,243
1078.8297,248
1079.0109,244
1079.1919,245
1079.373,245
1079.5542,243
1079.7352,246
1079.9163,245
1080.0974,245
1080.2783,245
1080.4594,244
1080.6404,244
1080.8214,244
1081.0023,247
1081.1832,249
1081.3641,246
1081.545,242
1081.726,247
1081.9069,245
1082.0878,247
1082.2686,246
1082.4493,245
1082.6302,247
1082.811,245
1082.9917,245
1083.1725,248
1083.3533,244
1083.5339,247
1083.7146,244
1083.8954,249
1084.076,243
1084.2567,246
1084.4373,245
1084.6179,246
1084.7985,246
1084.9791,245
1085.1597,246
1085.3402,246
1085.5208,244
1085.7012,245
1085.8817,244
1086.0621,243
1086.2427,245
1086.4231,244
1086.6035,244
1086.7839,243
1086.9642,244
1087.1447,246
1087.325,243
1087.5054,244
1087.6857,247
1087.866,247
1088.0463,246
1088.2264,245
1088.4067,247
1088.5869,245
1088.7672,245
1088.9474,245
1089.1276,244
1089.3077,248
1089.4878,246
1089.668,248
1089.848,246
1090.0282,247
1090.2083,247
1090.3883,247
