Date and Time:                Fri Dec 6 14:43:09.377 2024
Software Version:             4.32.30091.0
Temperature (C):              -80
Model:                        DU420_OE
Data Type:                    Counts
Acquisition Mode:             Single Scan
Trigger Mode:                 Internal
Exposure Time (secs):         100
Readout Mode:                 Full Vertical Binning
Horizontal binning:           1
Shutter Mode:                 Fully AUTO
TTL level:                    High
Time to open:                 10 ms
Time to close:                0 ms
Extended Data Range:          off
Horizontally flipped:         false
Vertical Shift Speed (usecs): 32.25
Pixel Readout Time (usecs):   10
Serial Number:                CCD-28590
Pre-Amplifier Gain:           1.7x
Spurious Noise Filter Mode:   No Filter
Photon counted:               false
Data Averaging Filter Mode:   No Filter
KY193i:
Serial Number:                KY-4498
Wavelength (nm):              1009.79
Grating Groove Density (l/mm):600
Grating Blaze:                1000nm



912.77606,260
912.96814,261
913.16016,263
913.35217,260
913.54425,261
913.73627,263
913.92828,262
914.1203,263
914.31226,264
914.50427,264
914.69629,268
914.88824,265
915.0802,268
915.27222,266
915.46417,267
915.65613,269
915.84808,270
916.03998,272
916.23193,271
916.42389,268
916.61578,266
916.80768,272
916.99957,270
917.19153,272
917.38336,273
917.57526,274
917.76715,274
917.95905,276
918.15088,276
918.34277,276
918.53461,281
918.72644,278
918.91827,283
919.11011,283
919.30194,279
919.49371,278
919.68555,277
919.87732,282
920.06915,287
920.26093,287
920.4527,287
920.64447,290
920.83624,291
921.02802,289
921.21973,291
921.4115,294
921.60321,291
921.79498,294
921.98669,296
922.17841,300
922.37012,292
922.56177,306
922.75348,298
922.94519,307
923.13684,306
923.32849,304
923.5202,308
923.71185,302
923.9035,309
924.09509,307
924.28674,305
924.47839,307
924.66998,310
924.86163,314
925.05322,318
925.24481,320
925.4364,320
925.62799,323
925.81958,322
926.01111,327
926.2027,329
926.39423,335
926.58575,330
926.77728,332
926.96881,333
927.16034,338
927.35187,338
927.5434,341
927.73486,343
927.92633,348
928.11786,344
928.30933,348
928.50079,355
928.69226,352
928.88367,354
929.07513,361
929.2666,353
929.45801,356
929.64941,363
929.84082,361
930.03223,362
930.22363,363
930.41504,361
930.60645,371
930.79779,373
930.98914,365
931.18054,370
931.37189,362
931.56323,375
931.75458,372
931.94586,371
932.13721,383
932.32849,380
932.51984,373
932.71112,381
932.9024,384
933.09369,386
933.28497,385
933.4762,385
933.66748,397
933.8587,392
934.04999,392
934.24121,400
934.43243,401
934.62366,399
934.81488,403
935.00604,402
935.19727,409
935.38843,410
935.57959,410
935.77075,414
935.96191,416
936.15308,418
936.34424,426
936.5354,416
936.7265,415
936.9176,425
937.10876,422
937.29987,427
937.49091,432
937.68201,423
937.87311,431
938.06415,427
938.25525,438
938.44629,436
938.63733,436
938.82837,437
939.01941,440
939.21045,441
939.40143,457
939.59247,608
939.78345,695
939.97443,476
940.16541,474
940.35638,468
940.54736,475
940.73834,474
940.92926,467
941.12018,495
941.31116,609
941.50208,649
941.69299,479
941.88385,486
942.07477,496
942.26569,496
942.45654,490
942.6474,507
942.83826,502
943.02911,510
943.21997,519
943.41083,517
943.60162,521
943.79248,535
943.98328,516
944.17407,526
944.36487,557
944.55566,533
944.74646,553
944.93719,568
945.12799,567
945.31873,571
945.50946,557
945.7002,570
945.89093,576
946.08167,599
946.27234,611
946.46307,620
946.65375,602
946.84442,628
947.0351,599
947.22577,624
947.41644,630
947.60706,644
947.79773,657
947.98834,663
948.17896,651
948.36957,683
948.56018,685
948.75079,697
948.94141,688
949.13196,681
949.32251,713
949.51306,716
949.70361,720
949.89417,723
950.08472,755
950.27527,759
950.46576,753
950.65625,762
950.84674,775
951.03723,801
951.22772,800
951.41821,823
951.60864,816
951.79913,824
951.98956,854
952.17999,861
952.37042,867
952.56085,868
952.75128,899
952.94165,886
953.13208,906
953.32245,919
953.51282,945
953.70319,949
953.89355,968
954.08386,985
954.27423,1021
954.46454,1043
954.65485,1055
954.84515,1067
955.03546,1078
955.22577,1122
955.41602,1145
955.60632,1137
955.79657,1189
955.98682,1189
956.17706,1212
956.36731,1249
956.55756,1242
956.74774,1274
956.93793,1320
957.12817,1316
957.31836,1356
957.50854,1364
957.69867,1378
957.88885,1392
958.07898,1372
958.26917,1407
958.45929,1411
958.64941,1429
958.83954,1445
959.0296,1463
959.21973,1479
959.40979,1517
959.59991,1527
959.78998,1535
959.98004,1539
960.17004,1514
960.36011,1531
960.55011,1562
960.74017,1567
960.93018,1561
961.12018,1563
961.31018,1512
961.50012,1502
961.69012,1517
961.88007,1527
962.07001,1511
962.25995,1576
962.44989,1566
962.63983,1505
962.82977,1533
963.01965,1534
963.20953,1546
963.39941,1513
963.58929,1566
963.77917,1514
963.96906,1516
964.15887,1524
964.34869,1529
964.53857,1492
964.72839,1503
964.91815,1541
965.10797,1541
965.29779,1545
965.48755,1543
965.67731,1537
965.86707,1493
966.05682,1494
966.24658,1489
966.43628,1478
966.62604,1476
966.81573,1478
967.00543,1529
967.19513,1559
967.38483,1503
967.57446,1520
967.76416,1513
967.9538,1540
968.14343,1569
968.33307,1570
968.52271,1626
968.71228,1590
968.90192,1603
969.09149,1631
969.28107,1639
969.47064,1778
969.66022,1671
969.84979,1656
970.03931,1713
970.22882,1704
970.41833,1662
970.60785,1735
970.79736,1748
970.98688,1728
971.17633,1775
971.36584,1851
971.5553,1879
971.74475,1944
971.9342,1942
972.1236,1981
972.31305,1987
972.50244,1983
972.69183,2013
972.88123,2092
973.07062,2144
973.26001,2134
973.44934,2164
973.63867,2215
973.82806,2266
974.0174,2327
974.20667,2290
974.396,2288
974.58533,2297
974.7746,2325
974.96387,2320
975.15314,2290
975.34241,2362
975.53162,2345
975.72089,2398
975.9101,2413
976.0993,2403
976.28851,2481
976.47772,2466
976.66693,2450
976.85608,2447
977.04523,2481
977.23438,2438
977.42352,2529
977.61267,2510
977.80182,2516
977.99091,2451
978.17999,2490
978.36908,2535
978.55817,2513
978.74725,2454
978.93634,2557
979.12537,2549
979.31439,2529
979.50342,2549
979.69244,2561
979.88147,2517
980.07043,2504
980.25946,2519
980.44843,2495
980.63739,2405
980.82635,2465
981.01526,2506
981.20422,2510
981.39313,2528
981.58203,2515
981.77094,2587
981.95984,2554
982.14868,2540
982.33759,2546
982.52643,2542
982.71527,2649
982.90411,2563
983.09296,2584
983.28174,2612
983.47058,2592
983.65936,2483
983.84814,2531
984.03693,2564
984.22565,2542
984.41443,2557
984.60315,2559
984.79187,2588
984.98059,2595
985.16931,2664
985.35803,2645
985.54669,2629
985.73535,2632
985.92401,2595
986.11267,2734
986.30133,2881
986.48993,2766
986.67859,2781
986.86719,2843
987.05579,2799
987.24438,2795
987.43292,2807
987.62152,2847
987.81006,2750
987.9986,2740
988.18713,2854
988.37561,2824
988.56415,2841
988.75262,2805
988.9411,2812
989.12958,2819
989.31805,2868
989.50653,2825
989.69495,2828
989.88342,2846
990.07184,2902
990.26019,2894
990.44861,2937
990.63702,2881
990.82538,2902
991.01373,2969
991.20209,2989
991.39044,3001
991.5788,3019
991.76709,2954
991.95538,2904
992.14368,2834
992.33197,2842
992.52026,2859
992.7085,2874
992.89679,2868
993.08502,2890
993.27325,2847
993.46143,2832
993.64966,2898
993.83783,2796
994.026,2791
994.21417,2698
994.40234,2733
994.59052,2788
994.77863,2745
994.96674,2751
995.15491,2582
995.34296,2588
995.53107,2595
995.71918,2539
995.90723,2530
996.09528,2569
996.28333,2428
996.47137,2340
996.65936,2293
996.84741,2196
997.0354,2173
997.22339,2070
997.41138,1982
997.5993,1961
997.78729,1865
997.97522,1824
998.16315,1720
998.35107,1712
998.53894,1657
998.72687,1609
998.91473,1534
999.1026,1497
999.29047,1448
999.47833,1436
999.66614,1430
999.85394,1373
1000.0418,1347
1000.2296,1298
1000.4174,1257
1000.6052,1228
1000.7929,1252
1000.9807,1225
1001.1684,1202
1001.3561,1191
1001.5438,1179
1001.7316,1144
1001.9193,1161
1002.1069,1149
1002.2946,1134
1002.4822,1123
1002.6699,1144
1002.8575,1136
1003.0452,1088
1003.2328,1078
1003.4203,1050
1003.608,1021
1003.7955,998
1003.9831,989
1004.1707,971
1004.3582,969
1004.5457,966
1004.7332,915
1004.9207,918
1005.1082,899
1005.2957,878
1005.4832,857
1005.6707,852
1005.8581,783
1006.0455,758
1006.2329,734
1006.4203,690
1006.6077,656
1006.7951,630
1006.9825,589
1007.1698,557
1007.3572,512
1007.5445,471
1007.7318,420
1007.9191,372
1008.1064,318
1008.2937,293
1008.481,278
1008.6683,267
1008.8555,262
1009.0427,256
1009.23,258
1009.4172,254
1009.6044,254
1009.7916,250
1009.9787,253
1010.1659,250
1010.353,251
1010.5402,251
1010.7273,251
1010.9144,253
1011.1015,250
1011.2886,252
1011.4756,253
1011.6627,251
1011.8498,255
1012.0368,251
1012.2239,252
1012.4109,249
1012.5978,253
1012.7849,249
1012.9718,252
1013.1588,252
1013.3458,252
1013.5327,250
1013.7196,249
1013.9065,250
1014.0934,249
1014.2803,252
1014.4672,250
1014.6541,247
1014.8409,248
1015.0277,250
1015.2145,250
1015.4014,249
1015.5881,246
1015.775,248
1015.9617,251
1016.1485,249
1016.3352,249
1016.522,252
1016.7087,252
1016.8954,252
1017.0821,249
1017.2688,249
1017.4554,254
1017.6421,254
1017.8287,256
1018.0154,266
1018.202,278
1018.3886,281
1018.5752,292
1018.7618,299
1018.9484,322
1019.1349,359
1019.3215,401
1019.508,485
1019.6945,459
1019.881,353
1020.0675,417
1020.254,453
1020.4405,260
1020.6269,248
1020.8134,249
1020.9998,248
1021.1862,250
1021.3726,251
1021.559,247
1021.7454,248
1021.9318,251
1022.1181,250
1022.3044,251
1022.4907,248
1022.6771,248
1022.8633,248
1023.0496,247
1023.2359,243
1023.4222,247
1023.6084,250
1023.7946,247
1023.9808,247
1024.1671,249
1024.3533,247
1024.5394,247
1024.7256,246
1024.9117,244
1025.0979,245
1025.2841,247
1025.4701,248
1025.6563,248
1025.8423,246
1026.0284,248
1026.2145,244
1026.4005,246
1026.5865,248
1026.7726,248
1026.9586,246
1027.1445,251
1027.3306,246
1027.5165,248
1027.7025,248
1027.8884,246
1028.0743,249
1028.2603,249
1028.4462,247
1028.6321,250
1028.8179,247
1029.0038,248
1029.1896,244
1029.3755,245
1029.5613,248
1029.7471,245
1029.9329,246
1030.1187,247
1030.3044,247
1030.4901,247
1030.6759,245
1030.8616,247
1031.0474,247
1031.233,249
1031.4187,246
1031.6044,247
1031.79,249
1031.9757,247
1032.1613,246
1032.3469,244
1032.5325,246
1032.7181,249
1032.9037,245
1033.0892,248
1033.2748,247
1033.4603,248
1033.6459,249
1033.8314,252
1034.0168,250
1034.2024,245
1034.3878,247
1034.5732,243
1034.7587,249
1034.9441,247
1035.1295,247
1035.3149,247
1035.5004,247
1035.6857,246
1035.871,246
1036.0564,249
1036.2417,247
1036.427,247
1036.6123,247
1036.7976,247
1036.9829,246
1037.1681,248
1037.3534,247
1037.5386,248
1037.7239,245
1037.9091,248
1038.0942,247
1038.2794,247
1038.4646,247
1038.6497,245
1038.8348,250
1039.0199,249
1039.2051,245
1039.3901,247
1039.5752,244
1039.7603,245
1039.9453,250
1040.1304,244
1040.3154,245
1040.5004,247
1040.6854,248
1040.8704,247
1041.0553,248
1041.2402,247
1041.4252,248
1041.6101,244
1041.795,247
1041.9799,245
1042.1648,246
1042.3496,247
1042.5345,247
1042.7194,251
1042.9042,248
1043.089,245
1043.2738,248
1043.4585,248
1043.6433,248
1043.828,246
1044.0128,247
1044.1975,247
1044.3822,246
1044.5669,244
1044.7516,246
1044.9363,246
1045.1208,247
1045.3055,247
1045.4901,248
1045.6748,246
1045.8594,247
1046.0439,246
1046.2285,246
1046.4131,248
1046.5975,248
1046.7821,247
1046.9666,246
1047.1511,247
1047.3356,245
1047.52,245
1047.7045,245
1047.8889,245
1048.0734,246
1048.2577,246
1048.4421,250
1048.6265,247
1048.8109,249
1048.9952,249
1049.1796,248
1049.3639,245
1049.5481,249
1049.7324,245
1049.9167,247
1050.101,248
1050.2852,247
1050.4695,244
1050.6537,246
1050.8379,247
1051.022,245
1051.2062,247
1051.3904,247
1051.5745,249
1051.7587,248
1051.9427,247
1052.1268,244
1052.3109,249
1052.495,245
1052.679,248
1052.863,248
1053.0471,248
1053.2311,249
1053.415,249
1053.599,246
1053.783,250
1053.9669,250
1054.1509,248
1054.3348,251
1054.5187,246
1054.7026,248
1054.8865,251
1055.0703,248
1055.2542,247
1055.438,246
1055.6218,248
1055.8055,248
1055.9894,249
1056.1731,249
1056.3569,250
1056.5406,247
1056.7244,246
1056.9081,248
1057.0918,246
1057.2754,246
1057.4591,248
1057.6427,248
1057.8264,247
1058.01,248
1058.1936,246
1058.3772,249
1058.5608,249
1058.7443,249
1058.9279,251
1059.1113,249
1059.2948,250
1059.4784,249
1059.6619,249
1059.8453,252
1060.0287,250
1060.2122,253
1060.3956,249
1060.579,253
1060.7623,255
1060.9458,256
1061.1292,258
1061.3125,261
1061.4957,267
1061.6791,267
1061.8624,273
1062.0457,279
1062.2289,287
1062.4122,310
1062.5955,354
1062.7787,407
1062.9618,451
1063.145,461
1063.3282,515
1063.5114,619
1063.6945,826
1063.8776,1078
1064.0607,1018
1064.2438,729
1064.4269,504
1064.61,386
1064.793,309
1064.9761,292
1065.1591,285
1065.342,276
1065.525,279
1065.708,272
1065.891,270
1066.0739,267
1066.2568,263
1066.4397,261
1066.6227,256
1066.8055,256
1066.9884,253
1067.1713,252
1067.354,253
1067.5369,252
1067.7196,247
1067.9025,251
1068.0852,253
1068.2679,250
1068.4507,247
1068.6334,249
1068.816,249
1068.9988,250
1069.1814,249
1069.3641,250
1069.5468,249
1069.7294,248
1069.912,246
1070.0946,249
1070.2771,248
1070.4597,248
1070.6422,248
1070.8248,247
1071.0073,245
1071.1898,244
1071.3723,247
1071.5547,247
1071.7372,249
1071.9197,247
1072.1021,248
1072.2844,248
1072.4668,246
1072.6492,246
1072.8315,249
1073.0139,248
1073.1962,247
1073.3785,246
1073.5608,247
1073.743,248
1073.9253,245
1074.1075,246
1074.2898,246
1074.472,248
1074.6542,245
1074.8363,246
1075.0186,246
1075.2007,247
1075.3828,248
1075.5649,247
1075.7469,245
1075.9291,247
1076.1111,245
1076.2932,246
1076.4752,246
1076.6572,247
1076.8392,245
1077.0212,246
1077.2031,244
1077.3851,245
1077.567,245
1077.749,243
1077.9309,244
1078.1128,244
1078.2946,247
1078.4764,246
1078.6583,245
1078.8401,247
1079.022,244
1079.2037,245
1079.3855,246
1079.5673,245
1079.7489,246
1079.9307,246
1080.1124,243
1080.2941,248
1080.4757,247
1080.6573,245
1080.839,247
1081.0206,245
1081.2023,249
1081.3838,245
1081.5654,247
1081.7469,247
1081.9285,249
1082.11,246
1082.2915,247
1082.473,242
1082.6545,244
1082.8359,246
1083.0173,245
1083.1989,246
1083.3802,246
1083.5616,247
1083.7429,245
1083.9243,245
1084.1057,247
1084.287,247
1084.4683,246
1084.6495,244
1084.8308,244
1085.0121,246
1085.1934,245
1085.3745,246
1085.5558,248
1085.7369,245
1085.9181,245
1086.0992,246
1086.2804,242
1086.4615,243
1086.6426,244
1086.8237,248
1087.0048,245
1087.1858,246
1087.3668,245
1087.5479,249
1087.7289,245
1087.9099,243
1088.0908,242
1088.2717,247
1088.4528,246
1088.6337,247
1088.8146,248
1088.9954,248
1089.1763,244
1089.3572,245
1089.538,246
1089.7188,247
1089.8995,246
1090.0803,242
1090.2611,246
1090.4419,246
1090.6226,248
1090.8033,243
1090.984,245
1091.1647,245
1091.3453,246
1091.526,245
1091.7067,244
1091.8872,248
1092.0679,244
1092.2484,248
1092.429,248
1092.6095,242
1092.79,243
1092.9705,244
1093.151,243
1093.3314,245
1093.512,244
1093.6924,245
1093.8728,246
1094.0532,244
1094.2335,244
1094.4139,244
1094.5942,249
1094.7747,244
1094.955,244
1095.1353,243
1095.3156,245
1095.4957,245
1095.676,246
1095.8562,246
1096.0365,243
1096.2167,247
1096.3969,243
1096.577,243
1096.7571,242
1096.9373,248
1097.1173,248
1097.2975,247
1097.4775,245
1097.6576,245
1097.8376,245
1098.0176,243
1098.1976,245
1098.3776,247
1098.5576,246
1098.7375,244
1098.9175,245
1099.0974,246
1099.2772,247
1099.4572,245
1099.637,244
1099.8169,245
1099.9967,246
1100.1765,246
1100.3563,248
1100.536,244
1100.7158,245
1100.8955,244
1101.0753,247
1101.255,245
1101.4347,245
1101.6143,244
1101.7939,243
1101.9736,247
1102.1532,246
1102.3328,246
1102.5123,245
1102.6919,249
1102.8715,248
1103.051,247
1103.2305,246
1103.41,248
1103.5895,247
1103.7689,247
