Date and Time:                Fri Dec 6 14:32:46.135 2024
Software Version:             4.32.30091.0
Temperature (C):              -80
Model:                        DU420_OE
Data Type:                    Counts
Acquisition Mode:             Single Scan
Trigger Mode:                 Internal
Exposure Time (secs):         100
Readout Mode:                 Full Vertical Binning
Horizontal binning:           1
Shutter Mode:                 Fully AUTO
TTL level:                    High
Time to open:                 10 ms
Time to close:                0 ms
Extended Data Range:          off
Horizontally flipped:         false
Vertical Shift Speed (usecs): 32.25
Pixel Readout Time (usecs):   10
Serial Number:                CCD-28590
Pre-Amplifier Gain:           1.7x
Spurious Noise Filter Mode:   No Filter
Photon counted:               false
Data Averaging Filter Mode:   No Filter
KY193i:
Serial Number:                KY-4498
Wavelength (nm):              1009.79
Grating Groove Density (l/mm):600
Grating Blaze:                1000nm



912.77606,251
912.96814,251
913.16016,252
913.35217,250
913.54425,253
913.73627,254
913.92828,250
914.1203,249
914.31226,253
914.50427,251
914.69629,252
914.88824,255
915.0802,256
915.27222,254
915.46417,256
915.65613,254
915.84808,253
916.03998,254
916.23193,255
916.42389,254
916.61578,258
916.80768,259
916.99957,255
917.19153,257
917.38336,252
917.57526,253
917.76715,259
917.95905,258
918.15088,262
918.34277,258
918.53461,259
918.72644,259
918.91827,261
919.11011,258
919.30194,258
919.49371,259
919.68555,257
919.87732,262
920.06915,258
920.26093,262
920.4527,266
920.64447,259
920.83624,266
921.02802,260
921.21973,271
921.4115,268
921.60321,266
921.79498,271
921.98669,266
922.17841,264
922.37012,265
922.56177,268
922.75348,269
922.94519,271
923.13684,271
923.32849,269
923.5202,276
923.71185,274
923.9035,272
924.09509,269
924.28674,275
924.47839,278
924.66998,276
924.86163,277
925.05322,279
925.24481,278
925.4364,278
925.62799,281
925.81958,279
926.01111,283
926.2027,282
926.39423,289
926.58575,283
926.77728,285
926.96881,287
927.16034,285
927.35187,288
927.5434,289
927.73486,292
927.92633,289
928.11786,296
928.30933,296
928.50079,301
928.69226,298
928.88367,297
929.07513,295
929.2666,293
929.45801,303
929.64941,299
929.84082,298
930.03223,298
930.22363,304
930.41504,307
930.60645,302
930.79779,298
930.98914,302
931.18054,307
931.37189,309
931.56323,306
931.75458,307
931.94586,311
932.13721,309
932.32849,309
932.51984,313
932.71112,309
932.9024,308
933.09369,312
933.28497,314
933.4762,314
933.66748,315
933.8587,315
934.04999,325
934.24121,311
934.43243,316
934.62366,314
934.81488,318
935.00604,326
935.19727,325
935.38843,326
935.57959,324
935.77075,329
935.96191,323
936.15308,328
936.34424,327
936.5354,331
936.7265,329
936.9176,336
937.10876,329
937.29987,333
937.49091,332
937.68201,330
937.87311,331
938.06415,333
938.25525,334
938.44629,329
938.63733,337
938.82837,342
939.01941,342
939.21045,334
939.40143,349
939.59247,338
939.78345,344
939.97443,347
940.16541,347
940.35638,347
940.54736,348
940.73834,353
940.92926,357
941.12018,357
941.31116,357
941.50208,355
941.69299,357
941.88385,358
942.07477,359
942.26569,363
942.45654,358
942.6474,364
942.83826,373
943.02911,366
943.21997,370
943.41083,377
943.60162,375
943.79248,379
943.98328,385
944.17407,387
944.36487,385
944.55566,382
944.74646,400
944.93719,394
945.12799,395
945.31873,390
945.50946,398
945.7002,401
945.89093,406
946.08167,404
946.27234,411
946.46307,420
946.65375,415
946.84442,423
947.0351,429
947.22577,433
947.41644,431
947.60706,432
947.79773,442
947.98834,432
948.17896,448
948.36957,452
948.56018,456
948.75079,463
948.94141,451
949.13196,458
949.32251,470
949.51306,474
949.70361,475
949.89417,468
950.08472,485
950.27527,617
950.46576,518
950.65625,489
950.84674,503
951.03723,496
951.22772,510
951.41821,525
951.60864,524
951.79913,518
951.98956,536
952.17999,537
952.37042,544
952.56085,570
952.75128,557
952.94165,548
953.13208,567
953.32245,573
953.51282,589
953.70319,597
953.89355,603
954.08386,601
954.27423,624
954.46454,636
954.65485,648
954.84515,669
955.03546,684
955.22577,685
955.41602,685
955.60632,717
955.79657,723
955.98682,730
956.17706,759
956.36731,776
956.55756,766
956.74774,783
956.93793,801
957.12817,818
957.31836,833
957.50854,849
957.69867,849
957.88885,859
958.07898,853
958.26917,894
958.45929,890
958.64941,900
958.83954,903
959.0296,913
959.21973,911
959.40979,934
959.59991,921
959.78998,937
959.98004,942
960.17004,955
960.36011,975
960.55011,986
960.74017,979
960.93018,980
961.12018,978
961.31018,961
961.50012,921
961.69012,943
961.88007,932
962.07001,943
962.25995,944
962.44989,958
962.63983,909
962.82977,927
963.01965,950
963.20953,970
963.39941,957
963.58929,958
963.77917,931
963.96906,926
964.15887,935
964.34869,937
964.53857,940
964.72839,927
964.91815,948
965.10797,946
965.29779,944
965.48755,944
965.67731,933
965.86707,929
966.05682,915
966.24658,921
966.43628,917
966.62604,927
966.81573,923
967.00543,939
967.19513,947
967.38483,929
967.57446,945
967.76416,944
967.9538,933
968.14343,928
968.33307,980
968.52271,985
968.71228,986
968.90192,993
969.09149,998
969.28107,1025
969.47064,1281
969.66022,1099
969.84979,1056
970.03931,1064
970.22882,1084
970.41833,1060
970.60785,1095
970.79736,1109
970.98688,1113
971.17633,1156
971.36584,1146
971.5553,1184
971.74475,1193
971.9342,1205
972.1236,1231
972.31305,1233
972.50244,1270
972.69183,1317
972.88123,1339
973.07062,1364
973.26001,1368
973.44934,1380
973.63867,1360
973.82806,1426
974.0174,1469
974.20667,1411
974.396,1446
974.58533,1427
974.7746,1463
974.96387,1443
975.15314,1434
975.34241,1470
975.53162,1500
975.72089,1497
975.9101,1512
976.0993,1490
976.28851,1528
976.47772,1571
976.66693,1568
976.85608,1546
977.04523,1545
977.23438,1523
977.42352,1582
977.61267,1595
977.80182,1610
977.99091,1537
978.17999,1579
978.36908,1605
978.55817,1621
978.74725,1642
978.93634,1627
979.12537,1611
979.31439,1606
979.50342,1645
979.69244,1654
979.88147,1658
980.07043,1631
980.25946,1595
980.44843,1650
980.63739,1604
980.82635,1607
981.01526,1624
981.20422,1698
981.39313,1672
981.58203,1619
981.77094,1703
981.95984,1698
982.14868,1712
982.33759,1660
982.52643,1662
982.71527,1706
982.90411,1694
983.09296,1728
983.28174,1704
983.47058,1695
983.65936,1666
983.84814,1686
984.03693,1736
984.22565,1687
984.41443,1733
984.60315,1713
984.79187,1756
984.98059,1758
985.16931,1765
985.35803,1758
985.54669,1750
985.73535,1802
985.92401,1766
986.11267,1792
986.30133,1893
986.48993,1916
986.67859,1888
986.86719,1938
987.05579,1892
987.24438,1917
987.43292,1971
987.62152,1986
987.81006,1906
987.9986,1897
988.18713,1988
988.37561,1968
988.56415,1978
988.75262,1993
988.9411,1989
989.12958,2033
989.31805,2028
989.50653,1975
989.69495,1984
989.88342,2005
990.07184,2045
990.26019,2049
990.44861,2104
990.63702,2085
990.82538,2113
991.01373,2138
991.20209,2182
991.39044,2160
991.5788,2179
991.76709,2179
991.95538,2123
992.14368,2081
992.33197,2060
992.52026,2105
992.7085,2114
992.89679,2063
993.08502,2127
993.27325,2123
993.46143,2130
993.64966,2103
993.83783,2069
994.026,2024
994.21417,1981
994.40234,2017
994.59052,2010
994.77863,2028
994.96674,2023
995.15491,1893
995.34296,1898
995.53107,1915
995.71918,1901
995.90723,1846
996.09528,1850
996.28333,1803
996.47137,1754
996.65936,1689
996.84741,1610
997.0354,1587
997.22339,1524
997.41138,1479
997.5993,1476
997.78729,1394
997.97522,1368
998.16315,1300
998.35107,1282
998.53894,1226
998.72687,1191
998.91473,1160
999.1026,1131
999.29047,1079
999.47833,1063
999.66614,1043
999.85394,1016
1000.0418,1007
1000.2296,976
1000.4174,961
1000.6052,944
1000.7929,964
1000.9807,933
1001.1684,923
1001.3561,932
1001.5438,879
1001.7316,867
1001.9193,883
1002.1069,877
1002.2946,859
1002.4822,852
1002.6699,874
1002.8575,885
1003.0452,862
1003.2328,840
1003.4203,809
1003.608,800
1003.7955,817
1003.9831,782
1004.1707,749
1004.3582,750
1004.5457,750
1004.7332,720
1004.9207,713
1005.1082,707
1005.2957,695
1005.4832,695
1005.6707,663
1005.8581,645
1006.0455,618
1006.2329,602
1006.4203,564
1006.6077,563
1006.7951,527
1006.9825,496
1007.1698,478
1007.3572,455
1007.5445,415
1007.7318,380
1007.9191,340
1008.1064,305
1008.2937,286
1008.481,271
1008.6683,261
1008.8555,256
1009.0427,254
1009.23,253
1009.4172,249
1009.6044,251
1009.7916,253
1009.9787,252
1010.1659,249
1010.353,251
1010.5402,248
1010.7273,252
1010.9144,251
1011.1015,250
1011.2886,251
1011.4756,250
1011.6627,247
1011.8498,249
1012.0368,250
1012.2239,247
1012.4109,248
1012.5978,247
1012.7849,249
1012.9718,248
1013.1588,248
1013.3458,248
1013.5327,251
1013.7196,247
1013.9065,247
1014.0934,249
1014.2803,249
1014.4672,249
1014.6541,248
1014.8409,251
1015.0277,250
1015.2145,249
1015.4014,248
1015.5881,247
1015.775,248
1015.9617,249
1016.1485,248
1016.3352,245
1016.522,248
1016.7087,250
1016.8954,246
1017.0821,247
1017.2688,248
1017.4554,248
1017.6421,250
1017.8287,251
1018.0154,260
1018.202,266
1018.3886,277
1018.5752,272
1018.7618,285
1018.9484,309
1019.1349,334
1019.3215,379
1019.508,419
1019.6945,370
1019.881,302
1020.0675,272
1020.254,250
1020.4405,248
1020.6269,247
1020.8134,248
1020.9998,247
1021.1862,247
1021.3726,246
1021.559,247
1021.7454,245
1021.9318,248
1022.1181,247
1022.3044,246
1022.4907,248
1022.6771,244
1022.8633,247
1023.0496,247
1023.2359,247
1023.4222,247
1023.6084,248
1023.7946,247
1023.9808,246
1024.1671,246
1024.3533,245
1024.5394,244
1024.7256,248
1024.9117,246
1025.0979,246
1025.2841,247
1025.4701,245
1025.6563,245
1025.8423,246
1026.0284,246
1026.2145,245
1026.4005,246
1026.5865,246
1026.7726,246
1026.9586,247
1027.1445,246
1027.3306,247
1027.5165,245
1027.7025,246
1027.8884,246
1028.0743,245
1028.2603,246
1028.4462,248
1028.6321,248
1028.8179,245
1029.0038,246
1029.1896,246
1029.3755,244
1029.5613,246
1029.7471,243
1029.9329,243
1030.1187,247
1030.3044,246
1030.4901,245
1030.6759,246
1030.8616,245
1031.0474,245
1031.233,245
1031.4187,244
1031.6044,247
1031.79,247
1031.9757,247
1032.1613,247
1032.3469,246
1032.5325,245
1032.7181,248
1032.9037,244
1033.0892,246
1033.2748,245
1033.4603,245
1033.6459,247
1033.8314,249
1034.0168,247
1034.2024,249
1034.3878,246
1034.5732,247
1034.7587,247
1034.9441,248
1035.1295,248
1035.3149,245
1035.5004,244
1035.6857,243
1035.871,246
1036.0564,247
1036.2417,247
1036.427,247
1036.6123,248
1036.7976,245
1036.9829,245
1037.1681,246
1037.3534,244
1037.5386,247
1037.7239,246
1037.9091,246
1038.0942,247
1038.2794,248
1038.4646,249
1038.6497,246
1038.8348,245
1039.0199,245
1039.2051,246
1039.3901,246
1039.5752,247
1039.7603,247
1039.9453,244
1040.1304,246
1040.3154,249
1040.5004,245
1040.6854,245
1040.8704,246
1041.0553,245
1041.2402,244
1041.4252,246
1041.6101,246
1041.795,247
1041.9799,247
1042.1648,247
1042.3496,247
1042.5345,246
1042.7194,246
1042.9042,246
1043.089,247
1043.2738,245
1043.4585,245
1043.6433,244
1043.828,245
1044.0128,246
1044.1975,246
1044.3822,246
1044.5669,247
1044.7516,248
1044.9363,246
1045.1208,246
1045.3055,247
1045.4901,247
1045.6748,246
1045.8594,247
1046.0439,243
1046.2285,247
1046.4131,248
1046.5975,243
1046.7821,246
1046.9666,245
1047.1511,244
1047.3356,243
1047.52,246
1047.7045,247
1047.8889,246
1048.0734,245
1048.2577,241
1048.4421,247
1048.6265,245
1048.8109,245
1048.9952,248
1049.1796,247
1049.3639,246
1049.5481,246
1049.7324,244
1049.9167,245
1050.101,246
1050.2852,245
1050.4695,248
1050.6537,247
1050.8379,247
1051.022,244
1051.2062,249
1051.3904,246
1051.5745,251
1051.7587,249
1051.9427,246
1052.1268,247
1052.3109,248
1052.495,247
1052.679,246
1052.863,248
1053.0471,249
1053.2311,246
1053.415,247
1053.599,247
1053.783,250
1053.9669,248
1054.1509,245
1054.3348,247
1054.5187,247
1054.7026,246
1054.8865,247
1055.0703,249
1055.2542,246
1055.438,250
1055.6218,248
1055.8055,247
1055.9894,248
1056.1731,248
1056.3569,248
1056.5406,245
1056.7244,249
1056.9081,247
1057.0918,249
1057.2754,251
1057.4591,247
1057.6427,247
1057.8264,250
1058.01,246
1058.1936,247
1058.3772,248
1058.5608,248
1058.7443,245
1058.9279,249
1059.1113,250
1059.2948,250
1059.4784,250
1059.6619,250
1059.8453,249
1060.0287,250
1060.2122,250
1060.3956,255
1060.579,252
1060.7623,252
1060.9458,261
1061.1292,258
1061.3125,259
1061.4957,264
1061.6791,266
1061.8624,274
1062.0457,279
1062.2289,284
1062.4122,304
1062.5955,353
1062.7787,404
1062.9618,437
1063.145,465
1063.3282,531
1063.5114,623
1063.6945,790
1063.8776,1072
1064.0607,1046
1064.2438,722
1064.4269,498
1064.61,380
1064.793,308
1064.9761,289
1065.1591,283
1065.342,279
1065.525,274
1065.708,275
1065.891,267
1066.0739,266
1066.2568,261
1066.4397,261
1066.6227,255
1066.8055,253
1066.9884,254
1067.1713,256
1067.354,252
1067.5369,252
1067.7196,250
1067.9025,249
1068.0852,251
1068.2679,250
1068.4507,247
1068.6334,249
1068.816,249
1068.9988,247
1069.1814,247
1069.3641,247
1069.5468,246
1069.7294,247
1069.912,248
1070.0946,247
1070.2771,247
1070.4597,249
1070.6422,247
1070.8248,246
1071.0073,245
1071.1898,246
1071.3723,246
1071.5547,246
1071.7372,248
1071.9197,248
1072.1021,251
1072.2844,246
1072.4668,247
1072.6492,247
1072.8315,247
1073.0139,246
1073.1962,247
1073.3785,245
1073.5608,246
1073.743,244
1073.9253,246
1074.1075,247
1074.2898,248
1074.472,243
1074.6542,248
1074.8363,247
1075.0186,246
1075.2007,245
1075.3828,246
1075.5649,247
1075.7469,247
1075.9291,245
1076.1111,245
1076.2932,243
1076.4752,247
1076.6572,244
1076.8392,244
1077.0212,246
1077.2031,244
1077.3851,245
1077.567,245
1077.749,244
1077.9309,246
1078.1128,244
1078.2946,246
1078.4764,247
1078.6583,245
1078.8401,247
1079.022,243
1079.2037,246
1079.3855,246
1079.5673,245
1079.7489,243
1079.9307,248
1080.1124,245
1080.2941,247
1080.4757,246
1080.6573,249
1080.839,245
1081.0206,245
1081.2023,245
1081.3838,244
1081.5654,246
1081.7469,247
1081.9285,247
1082.11,247
1082.2915,245
1082.473,244
1082.6545,243
1082.8359,246
1083.0173,246
1083.1989,248
1083.3802,247
1083.5616,246
1083.7429,245
1083.9243,244
1084.1057,243
1084.287,246
1084.4683,246
1084.6495,246
1084.8308,245
1085.0121,244
1085.1934,246
1085.3745,246
1085.5558,244
1085.7369,244
1085.9181,245
1086.0992,243
1086.2804,246
1086.4615,243
1086.6426,247
1086.8237,246
1087.0048,245
1087.1858,245
1087.3668,245
1087.5479,243
1087.7289,246
1087.9099,245
1088.0908,245
1088.2717,245
1088.4528,246
1088.6337,244
1088.8146,246
1088.9954,244
1089.1763,244
1089.3572,244
1089.538,243
1089.7188,247
1089.8995,245
1090.0803,244
1090.2611,243
1090.4419,247
1090.6226,245
1090.8033,244
1090.984,245
1091.1647,246
1091.3453,244
1091.526,245
1091.7067,245
1091.8872,243
1092.0679,244
1092.2484,249
1092.429,247
1092.6095,243
1092.79,245
1092.9705,244
1093.151,245
1093.3314,246
1093.512,245
1093.6924,247
1093.8728,244
1094.0532,246
1094.2335,244
1094.4139,245
1094.5942,245
1094.7747,244
1094.955,244
1095.1353,245
1095.3156,243
1095.4957,245
1095.676,245
1095.8562,244
1096.0365,246
1096.2167,245
1096.3969,246
1096.577,245
1096.7571,242
1096.9373,243
1097.1173,244
1097.2975,249
1097.4775,245
1097.6576,244
1097.8376,244
1098.0176,242
1098.1976,243
1098.3776,246
1098.5576,244
1098.7375,243
1098.9175,244
1099.0974,247
1099.2772,245
1099.4572,244
1099.637,245
1099.8169,243
1099.9967,245
1100.1765,247
1100.3563,243
1100.536,241
1100.7158,244
1100.8955,245
1101.0753,247
1101.255,245
1101.4347,242
1101.6143,247
1101.7939,243
1101.9736,244
1102.1532,242
1102.3328,243
1102.5123,247
1102.6919,247
1102.8715,244
1103.051,245
1103.2305,245
1103.41,246
1103.5895,247
1103.7689,245
