Date and Time:                Thu Dec 5 13:51:05.480 2024
Software Version:             4.32.30091.0
Temperature (C):              -80
Model:                        DU420_OE
Data Type:                    Counts
Acquisition Mode:             Single Scan
Trigger Mode:                 Internal
Exposure Time (secs):         100
Readout Mode:                 Full Vertical Binning
Horizontal binning:           1
Shutter Mode:                 Fully AUTO
TTL level:                    High
Time to open:                 10 ms
Time to close:                0 ms
Extended Data Range:          off
Horizontally flipped:         false
Vertical Shift Speed (usecs): 32.25
Pixel Readout Time (usecs):   10
Serial Number:                CCD-28590
Pre-Amplifier Gain:           1.7x
Spurious Noise Filter Mode:   No Filter
Photon counted:               false
Data Averaging Filter Mode:   No Filter
KY193i:
Serial Number:                KY-4498
Wavelength (nm):              1009.79
Grating Groove Density (l/mm):600
Grating Blaze:                1000nm



912.77606,245
912.96814,247
913.16016,247
913.35217,248
913.54425,246
913.73627,247
913.92828,245
914.1203,244
914.31226,247
914.50427,249
914.69629,245
914.88824,245
915.0802,248
915.27222,250
915.46417,249
915.65613,247
915.84808,249
916.03998,249
916.23193,248
916.42389,246
916.61578,247
916.80768,252
916.99957,248
917.19153,248
917.38336,248
917.57526,249
917.76715,249
917.95905,247
918.15088,249
918.34277,251
918.53461,252
918.72644,248
918.91827,251
919.11011,253
919.30194,249
919.49371,247
919.68555,249
919.87732,248
920.06915,250
920.26093,251
920.4527,252
920.64447,251
920.83624,251
921.02802,251
921.21973,250
921.4115,255
921.60321,250
921.79498,253
921.98669,252
922.17841,255
922.37012,252
922.56177,251
922.75348,257
922.94519,254
923.13684,251
923.32849,258
923.5202,255
923.71185,256
923.9035,252
924.09509,254
924.28674,253
924.47839,256
924.66998,256
924.86163,256
925.05322,259
925.24481,258
925.4364,254
925.62799,258
925.81958,257
926.01111,259
926.2027,260
926.39423,260
926.58575,260
926.77728,259
926.96881,260
927.16034,262
927.35187,260
927.5434,262
927.73486,259
927.92633,264
928.11786,263
928.30933,264
928.50079,264
928.69226,264
928.88367,263
929.07513,264
929.2666,264
929.45801,267
929.64941,270
929.84082,271
930.03223,266
930.22363,265
930.41504,270
930.60645,264
930.79779,270
930.98914,265
931.18054,271
931.37189,270
931.56323,273
931.75458,273
931.94586,268
932.13721,271
932.32849,268
932.51984,271
932.71112,271
932.9024,269
933.09369,272
933.28497,271
933.4762,271
933.66748,273
933.8587,271
934.04999,273
934.24121,274
934.43243,275
934.62366,271
934.81488,278
935.00604,274
935.19727,276
935.38843,280
935.57959,278
935.77075,275
935.96191,276
936.15308,277
936.34424,273
936.5354,275
936.7265,276
936.9176,279
937.10876,279
937.29987,275
937.49091,282
937.68201,278
937.87311,279
938.06415,285
938.25525,282
938.44629,280
938.63733,280
938.82837,285
939.01941,285
939.21045,286
939.40143,288
939.59247,284
939.78345,281
939.97443,286
940.16541,279
940.35638,288
940.54736,283
940.73834,282
940.92926,286
941.12018,286
941.31116,292
941.50208,288
941.69299,290
941.88385,287
942.07477,292
942.26569,291
942.45654,290
942.6474,295
942.83826,292
943.02911,299
943.21997,296
943.41083,296
943.60162,297
943.79248,298
943.98328,298
944.17407,302
944.36487,299
944.55566,301
944.74646,301
944.93719,308
945.12799,307
945.31873,309
945.50946,310
945.7002,309
945.89093,312
946.08167,317
946.27234,321
946.46307,315
946.65375,322
946.84442,321
947.0351,326
947.22577,324
947.41644,320
947.60706,324
947.79773,330
947.98834,329
948.17896,326
948.36957,333
948.56018,331
948.75079,331
948.94141,338
949.13196,333
949.32251,332
949.51306,344
949.70361,341
949.89417,347
950.08472,349
950.27527,345
950.46576,353
950.65625,351
950.84674,355
951.03723,359
951.22772,359
951.41821,358
951.60864,360
951.79913,367
951.98956,371
952.17999,381
952.37042,375
952.56085,387
952.75128,385
952.94165,388
953.13208,394
953.32245,392
953.51282,395
953.70319,397
953.89355,403
954.08386,402
954.27423,426
954.46454,430
954.65485,423
954.84515,425
955.03546,442
955.22577,453
955.41602,461
955.60632,462
955.79657,474
955.98682,467
956.17706,485
956.36731,482
956.55756,505
956.74774,501
956.93793,514
957.12817,515
957.31836,530
957.50854,526
957.69867,538
957.88885,542
958.07898,537
958.26917,545
958.45929,563
958.64941,558
958.83954,561
959.0296,580
959.21973,574
959.40979,574
959.59991,574
959.78998,573
959.98004,568
960.17004,577
960.36011,599
960.55011,603
960.74017,596
960.93018,590
961.12018,571
961.31018,581
961.50012,582
961.69012,579
961.88007,564
962.07001,557
962.25995,558
962.44989,575
962.63983,570
962.82977,558
963.01965,558
963.20953,577
963.39941,554
963.58929,561
963.77917,554
963.96906,564
964.15887,561
964.34869,543
964.53857,547
964.72839,554
964.91815,546
965.10797,548
965.29779,546
965.48755,534
965.67731,541
965.86707,536
966.05682,537
966.24658,543
966.43628,540
966.62604,544
966.81573,528
967.00543,545
967.19513,546
967.38483,545
967.57446,543
967.76416,523
967.9538,531
968.14343,541
968.33307,544
968.52271,552
968.71228,545
968.90192,552
969.09149,552
969.28107,563
969.47064,565
969.66022,571
969.84979,578
970.03931,571
970.22882,589
970.41833,585
970.60785,601
970.79736,601
970.98688,613
971.17633,621
971.36584,627
971.5553,644
971.74475,630
971.9342,640
972.1236,656
972.31305,671
972.50244,674
972.69183,690
972.88123,715
973.07062,707
973.26001,696
973.44934,708
973.63867,717
973.82806,708
974.0174,720
974.20667,716
974.396,731
974.58533,744
974.7746,727
974.96387,710
975.15314,715
975.34241,739
975.53162,734
975.72089,730
975.9101,750
976.0993,723
976.28851,732
976.47772,750
976.66693,773
976.85608,751
977.04523,764
977.23438,759
977.42352,774
977.61267,770
977.80182,779
977.99091,775
978.17999,765
978.36908,767
978.55817,762
978.74725,769
978.93634,773
979.12537,804
979.31439,786
979.50342,769
979.69244,787
979.88147,778
980.07043,754
980.25946,742
980.44843,758
980.63739,764
980.82635,772
981.01526,768
981.20422,790
981.39313,790
981.58203,793
981.77094,805
981.95984,806
982.14868,816
982.33759,796
982.52643,785
982.71527,798
982.90411,785
983.09296,782
983.28174,795
983.47058,785
983.65936,781
983.84814,789
984.03693,799
984.22565,783
984.41443,812
984.60315,814
984.79187,826
984.98059,824
985.16931,846
985.35803,832
985.54669,797
985.73535,803
985.92401,815
986.11267,837
986.30133,860
986.48993,857
986.67859,867
986.86719,874
987.05579,888
987.24438,891
987.43292,876
987.62152,902
987.81006,898
987.9986,875
988.18713,889
988.37561,905
988.56415,910
988.75262,914
988.9411,913
989.12958,913
989.31805,925
989.50653,915
989.69495,915
989.88342,925
990.07184,950
990.26019,938
990.44861,922
990.63702,943
990.82538,969
991.01373,984
991.20209,968
991.39044,1002
991.5788,982
991.76709,952
991.95538,938
992.14368,940
992.33197,948
992.52026,958
992.7085,942
992.89679,948
993.08502,946
993.27325,947
993.46143,952
993.64966,922
993.83783,907
994.026,915
994.21417,929
994.40234,911
994.59052,902
994.77863,900
994.96674,911
995.15491,883
995.34296,878
995.53107,871
995.71918,839
995.90723,852
996.09528,808
996.28333,795
996.47137,791
996.65936,754
996.84741,732
997.0354,697
997.22339,704
997.41138,675
997.5993,643
997.78729,648
997.97522,627
998.16315,616
998.35107,581
998.53894,580
998.72687,570
998.91473,543
999.1026,548
999.29047,543
999.47833,535
999.66614,511
999.85394,503
1000.0418,487
1000.2296,489
1000.4174,487
1000.6052,476
1000.7929,458
1000.9807,473
1001.1684,470
1001.3561,461
1001.5438,453
1001.7316,449
1001.9193,454
1002.1069,454
1002.2946,444
1002.4822,458
1002.6699,444
1002.8575,436
1003.0452,434
1003.2328,432
1003.4203,439
1003.608,427
1003.7955,426
1003.9831,420
1004.1707,418
1004.3582,403
1004.5457,384
1004.7332,386
1004.9207,388
1005.1082,391
1005.2957,387
1005.4832,377
1005.6707,376
1005.8581,367
1006.0455,363
1006.2329,347
1006.4203,340
1006.6077,331
1006.7951,325
1006.9825,311
1007.1698,310
1007.3572,296
1007.5445,282
1007.7318,280
1007.9191,271
1008.1064,261
1008.2937,259
1008.481,249
1008.6683,251
1008.8555,250
1009.0427,251
1009.23,247
1009.4172,248
1009.6044,247
1009.7916,246
1009.9787,247
1010.1659,248
1010.353,249
1010.5402,245
1010.7273,247
1010.9144,245
1011.1015,248
1011.2886,249
1011.4756,247
1011.6627,250
1011.8498,246
1012.0368,249
1012.2239,247
1012.4109,249
1012.5978,247
1012.7849,245
1012.9718,247
1013.1588,247
1013.3458,247
1013.5327,248
1013.7196,246
1013.9065,250
1014.0934,244
1014.2803,244
1014.4672,247
1014.6541,246
1014.8409,248
1015.0277,248
1015.2145,243
1015.4014,244
1015.5881,244
1015.775,242
1015.9617,248
1016.1485,245
1016.3352,246
1016.522,245
1016.7087,247
1016.8954,247
1017.0821,249
1017.2688,245
1017.4554,244
1017.6421,247
1017.8287,246
1018.0154,250
1018.202,247
1018.3886,246
1018.5752,247
1018.7618,246
1018.9484,247
1019.1349,248
1019.3215,246
1019.508,244
1019.6945,247
1019.881,246
1020.0675,247
1020.254,247
1020.4405,245
1020.6269,244
1020.8134,248
1020.9998,246
1021.1862,246
1021.3726,246
1021.559,245
1021.7454,245
1021.9318,247
1022.1181,245
1022.3044,247
1022.4907,245
1022.6771,244
1022.8633,245
1023.0496,247
1023.2359,244
1023.4222,247
1023.6084,247
1023.7946,247
1023.9808,246
1024.1671,246
1024.3533,245
1024.5394,246
1024.7256,244
1024.9117,245
1025.0979,246
1025.2841,244
1025.4701,246
1025.6563,244
1025.8423,244
1026.0284,247
1026.2145,247
1026.4005,246
1026.5865,246
1026.7726,248
1026.9586,246
1027.1445,249
1027.3306,250
1027.5165,253
1027.7025,261
1027.8884,271
1028.0743,273
1028.2603,277
1028.4462,286
1028.6321,310
1028.8179,340
1029.0038,380
1029.1896,368
1029.3755,318
1029.5613,280
1029.7471,254
1029.9329,249
1030.1187,247
1030.3044,249
1030.4901,247
1030.6759,249
1030.8616,246
1031.0474,245
1031.233,247
1031.4187,245
1031.6044,246
1031.79,246
1031.9757,245
1032.1613,246
1032.3469,246
1032.5325,246
1032.7181,250
1032.9037,244
1033.0892,246
1033.2748,248
1033.4603,245
1033.6459,245
1033.8314,244
1034.0168,247
1034.2024,246
1034.3878,244
1034.5732,245
1034.7587,246
1034.9441,246
1035.1295,244
1035.3149,246
1035.5004,248
1035.6857,244
1035.871,246
1036.0564,245
1036.2417,244
1036.427,247
1036.6123,245
1036.7976,245
1036.9829,247
1037.1681,242
1037.3534,246
1037.5386,245
1037.7239,248
1037.9091,247
1038.0942,246
1038.2794,246
1038.4646,247
1038.6497,247
1038.8348,247
1039.0199,247
1039.2051,247
1039.3901,245
1039.5752,245
1039.7603,246
1039.9453,245
1040.1304,246
1040.3154,246
1040.5004,247
1040.6854,246
1040.8704,245
1041.0553,246
1041.2402,245
1041.4252,246
1041.6101,246
1041.795,243
1041.9799,246
1042.1648,246
1042.3496,244
1042.5345,242
1042.7194,247
1042.9042,243
1043.089,243
1043.2738,246
1043.4585,246
1043.6433,245
1043.828,247
1044.0128,245
1044.1975,242
1044.3822,246
1044.5669,243
1044.7516,243
1044.9363,246
1045.1208,244
1045.3055,247
1045.4901,245
1045.6748,247
1045.8594,246
1046.0439,244
1046.2285,244
1046.4131,244
1046.5975,246
1046.7821,244
1046.9666,245
1047.1511,245
1047.3356,245
1047.52,245
1047.7045,246
1047.8889,245
1048.0734,246
1048.2577,244
1048.4421,247
1048.6265,246
1048.8109,244
1048.9952,245
1049.1796,245
1049.3639,247
1049.5481,246
1049.7324,246
1049.9167,245
1050.101,244
1050.2852,247
1050.4695,243
1050.6537,243
1050.8379,245
1051.022,244
1051.2062,244
1051.3904,245
1051.5745,248
1051.7587,247
1051.9427,244
1052.1268,244
1052.3109,245
1052.495,245
1052.679,243
1052.863,246
1053.0471,247
1053.2311,247
1053.415,246
1053.599,246
1053.783,247
1053.9669,247
1054.1509,244
1054.3348,245
1054.5187,243
1054.7026,244
1054.8865,244
1055.0703,244
1055.2542,244
1055.438,245
1055.6218,244
1055.8055,245
1055.9894,247
1056.1731,245
1056.3569,245
1056.5406,241
1056.7244,246
1056.9081,243
1057.0918,245
1057.2754,245
1057.4591,245
1057.6427,247
1057.8264,245
1058.01,243
1058.1936,242
1058.3772,243
1058.5608,245
1058.7443,244
1058.9279,245
1059.1113,247
1059.2948,243
1059.4784,246
1059.6619,247
1059.8453,247
1060.0287,246
1060.2122,244
1060.3956,244
1060.579,243
1060.7623,246
1060.9458,244
1061.1292,246
1061.3125,246
1061.4957,244
1061.6791,244
1061.8624,247
1062.0457,243
1062.2289,244
1062.4122,250
1062.5955,315
1062.7787,557
1062.9618,548
1063.145,366
1063.3282,536
1063.5114,452
1063.6945,253
1063.8776,245
1064.0607,242
1064.2438,244
1064.4269,245
1064.61,243
1064.793,245
1064.9761,243
1065.1591,243
1065.342,245
1065.525,243
1065.708,244
1065.891,247
1066.0739,243
1066.2568,245
1066.4397,245
1066.6227,243
1066.8055,244
1066.9884,246
1067.1713,245
1067.354,245
1067.5369,244
1067.7196,245
1067.9025,245
1068.0852,243
1068.2679,241
1068.4507,243
1068.6334,247
1068.816,247
1068.9988,243
1069.1814,244
1069.3641,246
1069.5468,244
1069.7294,244
1069.912,243
1070.0946,242
1070.2771,243
1070.4597,245
1070.6422,245
1070.8248,244
1071.0073,244
1071.1898,245
1071.3723,245
1071.5547,244
1071.7372,245
1071.9197,245
1072.1021,247
1072.2844,245
1072.4668,244
1072.6492,242
1072.8315,245
1073.0139,247
1073.1962,242
1073.3785,244
1073.5608,246
1073.743,244
1073.9253,243
1074.1075,247
1074.2898,242
1074.472,245
1074.6542,244
1074.8363,243
1075.0186,244
1075.2007,242
1075.3828,245
1075.5649,244
1075.7469,245
1075.9291,243
1076.1111,246
1076.2932,246
1076.4752,243
1076.6572,244
1076.8392,242
1077.0212,243
1077.2031,244
1077.3851,243
1077.567,243
1077.749,245
1077.9309,242
1078.1128,244
1078.2946,249
1078.4764,247
1078.6583,242
1078.8401,244
1079.022,246
1079.2037,244
1079.3855,247
1079.5673,244
1079.7489,246
1079.9307,244
1080.1124,244
1080.2941,247
1080.4757,244
1080.6573,246
1080.839,246
1081.0206,247
1081.2023,245
1081.3838,243
1081.5654,246
1081.7469,245
1081.9285,244
1082.11,244
1082.2915,246
1082.473,244
1082.6545,243
1082.8359,245
1083.0173,243
1083.1989,244
1083.3802,245
1083.5616,244
1083.7429,244
1083.9243,243
1084.1057,245
1084.287,248
1084.4683,245
1084.6495,245
1084.8308,244
1085.0121,243
1085.1934,243
1085.3745,244
1085.5558,241
1085.7369,243
1085.9181,244
1086.0992,244
1086.2804,243
1086.4615,243
1086.6426,243
1086.8237,244
1087.0048,245
1087.1858,243
1087.3668,247
1087.5479,245
1087.7289,245
1087.9099,243
1088.0908,243
1088.2717,243
1088.4528,247
1088.6337,246
1088.8146,244
1088.9954,245
1089.1763,242
1089.3572,244
1089.538,244
1089.7188,246
1089.8995,244
1090.0803,243
1090.2611,245
1090.4419,244
1090.6226,245
1090.8033,242
1090.984,244
1091.1647,244
1091.3453,243
1091.526,244
1091.7067,243
1091.8872,245
1092.0679,244
1092.2484,243
1092.429,246
1092.6095,243
1092.79,245
1092.9705,243
1093.151,244
1093.3314,244
1093.512,243
1093.6924,242
1093.8728,244
1094.0532,243
1094.2335,245
1094.4139,243
1094.5942,247
1094.7747,246
1094.955,243
1095.1353,243
1095.3156,245
1095.4957,244
1095.676,243
1095.8562,241
1096.0365,245
1096.2167,242
1096.3969,242
1096.577,242
1096.7571,244
1096.9373,245
1097.1173,246
1097.2975,247
1097.4775,246
1097.6576,245
1097.8376,244
1098.0176,242
1098.1976,244
1098.3776,245
1098.5576,244
1098.7375,243
1098.9175,245
1099.0974,244
1099.2772,243
1099.4572,244
1099.637,243
1099.8169,244
1099.9967,245
1100.1765,243
1100.3563,244
1100.536,247
1100.7158,243
1100.8955,243
1101.0753,246
1101.255,247
1101.4347,243
1101.6143,244
1101.7939,242
1101.9736,244
1102.1532,245
1102.3328,244
1102.5123,244
1102.6919,247
1102.8715,245
1103.051,243
1103.2305,245
1103.41,247
1103.5895,247
1103.7689,246
