Date and Time:                Fri Dec 6 10:22:42.739 2024
Software Version:             4.32.30091.0
Temperature (C):              -80
Model:                        DU420_OE
Data Type:                    Counts
Acquisition Mode:             Single Scan
Trigger Mode:                 Internal
Exposure Time (secs):         100
Readout Mode:                 Full Vertical Binning
Horizontal binning:           1
Shutter Mode:                 Fully AUTO
TTL level:                    High
Time to open:                 10 ms
Time to close:                0 ms
Extended Data Range:          off
Horizontally flipped:         false
Vertical Shift Speed (usecs): 32.25
Pixel Readout Time (usecs):   10
Serial Number:                CCD-28590
Pre-Amplifier Gain:           1.7x
Spurious Noise Filter Mode:   No Filter
Photon counted:               false
Data Averaging Filter Mode:   No Filter
KY193i:
Serial Number:                KY-4498
Wavelength (nm):              1009.79
Grating Groove Density (l/mm):600
Grating Blaze:                1000nm



912.77606,244
912.96814,245
913.16016,246
913.35217,246
913.54425,246
913.73627,245
913.92828,245
914.1203,245
914.31226,245
914.50427,246
914.69629,246
914.88824,246
915.0802,244
915.27222,247
915.46417,245
915.65613,246
915.84808,246
916.03998,247
916.23193,246
916.42389,246
916.61578,246
916.80768,248
916.99957,244
917.19153,246
917.38336,247
917.57526,247
917.76715,248
917.95905,246
918.15088,250
918.34277,247
918.53461,249
918.72644,248
918.91827,247
919.11011,249
919.30194,248
919.49371,246
919.68555,249
919.87732,247
920.06915,248
920.26093,247
920.4527,247
920.64447,247
920.83624,247
921.02802,247
921.21973,248
921.4115,245
921.60321,250
921.79498,248
921.98669,245
922.17841,248
922.37012,248
922.56177,246
922.75348,250
922.94519,249
923.13684,249
923.32849,249
923.5202,248
923.71185,248
923.9035,251
924.09509,250
924.28674,248
924.47839,250
924.66998,251
924.86163,247
925.05322,253
925.24481,251
925.4364,253
925.62799,253
925.81958,254
926.01111,255
926.2027,253
926.39423,253
926.58575,250
926.77728,252
926.96881,251
927.16034,254
927.35187,255
927.5434,253
927.73486,252
927.92633,257
928.11786,254
928.30933,256
928.50079,256
928.69226,259
928.88367,255
929.07513,259
929.2666,255
929.45801,257
929.64941,259
929.84082,258
930.03223,259
930.22363,258
930.41504,257
930.60645,257
930.79779,259
930.98914,259
931.18054,259
931.37189,258
931.56323,258
931.75458,260
931.94586,257
932.13721,259
932.32849,258
932.51984,259
932.71112,259
932.9024,257
933.09369,260
933.28497,259
933.4762,263
933.66748,263
933.8587,262
934.04999,261
934.24121,262
934.43243,259
934.62366,264
934.81488,260
935.00604,262
935.19727,263
935.38843,265
935.57959,264
935.77075,265
935.96191,263
936.15308,267
936.34424,263
936.5354,262
936.7265,266
936.9176,265
937.10876,265
937.29987,265
937.49091,269
937.68201,262
937.87311,267
938.06415,270
938.25525,265
938.44629,267
938.63733,267
938.82837,266
939.01941,268
939.21045,272
939.40143,264
939.59247,266
939.78345,270
939.97443,266
940.16541,270
940.35638,270
940.54736,268
940.73834,269
940.92926,269
941.12018,267
941.31116,268
941.50208,269
941.69299,267
941.88385,267
942.07477,269
942.26569,271
942.45654,273
942.6474,273
942.83826,276
943.02911,271
943.21997,276
943.41083,276
943.60162,273
943.79248,277
943.98328,276
944.17407,276
944.36487,279
944.55566,280
944.74646,276
944.93719,279
945.12799,280
945.31873,280
945.50946,279
945.7002,286
945.89093,286
946.08167,290
946.27234,283
946.46307,290
946.65375,287
946.84442,292
947.0351,285
947.22577,290
947.41644,291
947.60706,291
947.79773,293
947.98834,288
948.17896,291
948.36957,291
948.56018,292
948.75079,296
948.94141,300
949.13196,302
949.32251,296
949.51306,299
949.70361,301
949.89417,305
950.08472,300
950.27527,305
950.46576,300
950.65625,301
950.84674,307
951.03723,310
951.22772,312
951.41821,308
951.60864,314
951.79913,318
951.98956,320
952.17999,325
952.37042,320
952.56085,324
952.75128,331
952.94165,330
953.13208,333
953.32245,338
953.51282,330
953.70319,334
953.89355,340
954.08386,337
954.27423,347
954.46454,353
954.65485,357
954.84515,359
955.03546,371
955.22577,368
955.41602,377
955.60632,382
955.79657,386
955.98682,390
956.17706,400
956.36731,401
956.55756,408
956.74774,413
956.93793,425
957.12817,431
957.31836,415
957.50854,432
957.69867,439
957.88885,444
958.07898,456
958.26917,461
958.45929,455
958.64941,463
958.83954,463
959.0296,465
959.21973,471
959.40979,475
959.59991,474
959.78998,483
959.98004,480
960.17004,476
960.36011,488
960.55011,469
960.74017,479
960.93018,479
961.12018,467
961.31018,463
961.50012,471
961.69012,471
961.88007,466
962.07001,477
962.25995,462
962.44989,461
962.63983,455
962.82977,461
963.01965,461
963.20953,461
963.39941,462
963.58929,455
963.77917,453
963.96906,454
964.15887,456
964.34869,460
964.53857,443
964.72839,447
964.91815,461
965.10797,444
965.29779,450
965.48755,436
965.67731,448
965.86707,444
966.05682,439
966.24658,435
966.43628,445
966.62604,446
966.81573,443
967.00543,441
967.19513,440
967.38483,444
967.57446,448
967.76416,442
967.9538,459
968.14343,449
968.33307,449
968.52271,454
968.71228,461
968.90192,467
969.09149,476
969.28107,478
969.47064,465
969.66022,480
969.84979,487
970.03931,475
970.22882,485
970.41833,498
970.60785,500
970.79736,518
970.98688,505
971.17633,523
971.36584,537
971.5553,539
971.74475,540
971.9342,547
972.1236,558
972.31305,551
972.50244,567
972.69183,582
972.88123,573
973.07062,577
973.26001,572
973.44934,592
973.63867,597
973.82806,595
974.0174,592
974.20667,589
974.396,592
974.58533,595
974.7746,617
974.96387,614
975.15314,622
975.34241,617
975.53162,608
975.72089,640
975.9101,625
976.0993,628
976.28851,628
976.47772,635
976.66693,627
976.85608,643
977.04523,646
977.23438,655
977.42352,654
977.61267,651
977.80182,650
977.99091,643
978.17999,658
978.36908,643
978.55817,678
978.74725,690
978.93634,661
979.12537,666
979.31439,677
979.50342,675
979.69244,688
979.88147,667
980.07043,677
980.25946,681
980.44843,684
980.63739,672
980.82635,683
981.01526,681
981.20422,698
981.39313,675
981.58203,685
981.77094,682
981.95984,694
982.14868,685
982.33759,691
982.52643,697
982.71527,702
982.90411,699
983.09296,687
983.28174,699
983.47058,697
983.65936,699
983.84814,712
984.03693,719
984.22565,708
984.41443,718
984.60315,715
984.79187,719
984.98059,740
985.16931,728
985.35803,710
985.54669,749
985.73535,760
985.92401,752
986.11267,739
986.30133,767
986.48993,779
986.67859,777
986.86719,791
987.05579,796
987.24438,782
987.43292,808
987.62152,807
987.81006,812
987.9986,817
988.18713,815
988.37561,811
988.56415,835
988.75262,827
988.9411,829
989.12958,839
989.31805,831
989.50653,882
989.69495,880
989.88342,883
990.07184,866
990.26019,893
990.44861,908
990.63702,895
990.82538,907
991.01373,929
991.20209,911
991.39044,911
991.5788,914
991.76709,935
991.95538,924
992.14368,910
992.33197,894
992.52026,914
992.7085,952
992.89679,932
993.08502,915
993.27325,925
993.46143,917
993.64966,895
993.83783,908
994.026,891
994.21417,896
994.40234,865
994.59052,876
994.77863,875
994.96674,907
995.15491,880
995.34296,832
995.53107,810
995.71918,828
995.90723,820
996.09528,811
996.28333,780
996.47137,762
996.65936,751
996.84741,731
997.0354,693
997.22339,674
997.41138,666
997.5993,632
997.78729,624
997.97522,602
998.16315,608
998.35107,584
998.53894,561
998.72687,541
998.91473,526
999.1026,531
999.29047,533
999.47833,508
999.66614,500
999.85394,500
1000.0418,491
1000.2296,492
1000.4174,480
1000.6052,470
1000.7929,467
1000.9807,465
1001.1684,470
1001.3561,463
1001.5438,450
1001.7316,443
1001.9193,445
1002.1069,437
1002.2946,458
1002.4822,436
1002.6699,434
1002.8575,446
1003.0452,440
1003.2328,411
1003.4203,430
1003.608,428
1003.7955,411
1003.9831,415
1004.1707,398
1004.3582,407
1004.5457,397
1004.7332,405
1004.9207,408
1005.1082,404
1005.2957,395
1005.4832,389
1005.6707,388
1005.8581,378
1006.0455,375
1006.2329,365
1006.4203,371
1006.6077,351
1006.7951,344
1006.9825,334
1007.1698,323
1007.3572,324
1007.5445,308
1007.7318,286
1007.9191,276
1008.1064,265
1008.2937,256
1008.481,254
1008.6683,250
1008.8555,251
1009.0427,248
1009.23,246
1009.4172,246
1009.6044,247
1009.7916,246
1009.9787,245
1010.1659,246
1010.353,245
1010.5402,246
1010.7273,245
1010.9144,247
1011.1015,250
1011.2886,248
1011.4756,246
1011.6627,249
1011.8498,249
1012.0368,245
1012.2239,246
1012.4109,247
1012.5978,249
1012.7849,245
1012.9718,247
1013.1588,248
1013.3458,248
1013.5327,246
1013.7196,246
1013.9065,245
1014.0934,246
1014.2803,245
1014.4672,248
1014.6541,247
1014.8409,248
1015.0277,246
1015.2145,247
1015.4014,247
1015.5881,247
1015.775,245
1015.9617,245
1016.1485,247
1016.3352,247
1016.522,246
1016.7087,246
1016.8954,247
1017.0821,247
1017.2688,245
1017.4554,245
1017.6421,247
1017.8287,252
1018.0154,258
1018.202,259
1018.3886,264
1018.5752,273
1018.7618,270
1018.9484,278
1019.1349,300
1019.3215,335
1019.508,314
1019.6945,287
1019.881,270
1020.0675,255
1020.254,249
1020.4405,245
1020.6269,247
1020.8134,245
1020.9998,247
1021.1862,244
1021.3726,245
1021.559,245
1021.7454,244
1021.9318,245
1022.1181,246
1022.3044,244
1022.4907,248
1022.6771,245
1022.8633,246
1023.0496,245
1023.2359,247
1023.4222,244
1023.6084,243
1023.7946,247
1023.9808,246
1024.1671,245
1024.3533,244
1024.5394,245
1024.7256,245
1024.9117,244
1025.0979,244
1025.2841,244
1025.4701,248
1025.6563,243
1025.8423,245
1026.0284,243
1026.2145,246
1026.4005,244
1026.5865,244
1026.7726,245
1026.9586,245
1027.1445,243
1027.3306,247
1027.5165,245
1027.7025,246
1027.8884,246
1028.0743,247
1028.2603,249
1028.4462,333
1028.6321,1855
1028.8179,278
1029.0038,247
1029.1896,245
1029.3755,244
1029.5613,245
1029.7471,244
1029.9329,244
1030.1187,244
1030.3044,245
1030.4901,246
1030.6759,243
1030.8616,244
1031.0474,245
1031.233,245
1031.4187,246
1031.6044,246
1031.79,244
1031.9757,246
1032.1613,244
1032.3469,244
1032.5325,245
1032.7181,246
1032.9037,245
1033.0892,247
1033.2748,244
1033.4603,243
1033.6459,247
1033.8314,248
1034.0168,246
1034.2024,248
1034.3878,246
1034.5732,245
1034.7587,244
1034.9441,244
1035.1295,245
1035.3149,243
1035.5004,243
1035.6857,245
1035.871,246
1036.0564,243
1036.2417,245
1036.427,246
1036.6123,246
1036.7976,245
1036.9829,245
1037.1681,244
1037.3534,245
1037.5386,243
1037.7239,246
1037.9091,246
1038.0942,244
1038.2794,245
1038.4646,244
1038.6497,245
1038.8348,245
1039.0199,244
1039.2051,246
1039.3901,246
1039.5752,246
1039.7603,245
1039.9453,241
1040.1304,248
1040.3154,246
1040.5004,243
1040.6854,247
1040.8704,248
1041.0553,246
1041.2402,243
1041.4252,245
1041.6101,242
1041.795,247
1041.9799,245
1042.1648,245
1042.3496,245
1042.5345,244
1042.7194,245
1042.9042,246
1043.089,243
1043.2738,246
1043.4585,244
1043.6433,247
1043.828,246
1044.0128,244
1044.1975,243
1044.3822,243
1044.5669,243
1044.7516,244
1044.9363,246
1045.1208,246
1045.3055,244
1045.4901,245
1045.6748,245
1045.8594,244
1046.0439,245
1046.2285,244
1046.4131,246
1046.5975,245
1046.7821,246
1046.9666,244
1047.1511,246
1047.3356,241
1047.52,243
1047.7045,245
1047.8889,244
1048.0734,244
1048.2577,246
1048.4421,244
1048.6265,246
1048.8109,245
1048.9952,247
1049.1796,246
1049.3639,245
1049.5481,243
1049.7324,243
1049.9167,245
1050.101,264
1050.2852,927
1050.4695,440
1050.6537,254
1050.8379,247
1051.022,244
1051.2062,244
1051.3904,246
1051.5745,248
1051.7587,248
1051.9427,245
1052.1268,245
1052.3109,243
1052.495,244
1052.679,244
1052.863,246
1053.0471,246
1053.2311,243
1053.415,246
1053.599,246
1053.783,246
1053.9669,247
1054.1509,246
1054.3348,245
1054.5187,244
1054.7026,244
1054.8865,245
1055.0703,244
1055.2542,243
1055.438,248
1055.6218,244
1055.8055,245
1055.9894,244
1056.1731,243
1056.3569,244
1056.5406,244
1056.7244,244
1056.9081,245
1057.0918,246
1057.2754,246
1057.4591,243
1057.6427,245
1057.8264,245
1058.01,242
1058.1936,243
1058.3772,244
1058.5608,246
1058.7443,246
1058.9279,242
1059.1113,244
1059.2948,244
1059.4784,246
1059.6619,243
1059.8453,243
1060.0287,246
1060.2122,244
1060.3956,244
1060.579,244
1060.7623,242
1060.9458,247
1061.1292,245
1061.3125,244
1061.4957,244
1061.6791,243
1061.8624,244
1062.0457,246
1062.2289,245
1062.4122,244
1062.5955,244
1062.7787,245
1062.9618,247
1063.145,244
1063.3282,244
1063.5114,246
1063.6945,244
1063.8776,244
1064.0607,243
1064.2438,243
1064.4269,244
1064.61,244
1064.793,244
1064.9761,243
1065.1591,245
1065.342,244
1065.525,243
1065.708,243
1065.891,242
1066.0739,243
1066.2568,245
1066.4397,244
1066.6227,243
1066.8055,243
1066.9884,246
1067.1713,245
1067.354,244
1067.5369,246
1067.7196,243
1067.9025,246
1068.0852,247
1068.2679,245
1068.4507,241
1068.6334,245
1068.816,244
1068.9988,244
1069.1814,245
1069.3641,243
1069.5468,244
1069.7294,244
1069.912,246
1070.0946,244
1070.2771,243
1070.4597,246
1070.6422,243
1070.8248,245
1071.0073,245
1071.1898,244
1071.3723,245
1071.5547,243
1071.7372,245
1071.9197,247
1072.1021,245
1072.2844,244
1072.4668,246
1072.6492,245
1072.8315,244
1073.0139,245
1073.1962,244
1073.3785,244
1073.5608,242
1073.743,243
1073.9253,281
1074.1075,510
1074.2898,251
1074.472,245
1074.6542,244
1074.8363,246
1075.0186,243
1075.2007,243
1075.3828,244
1075.5649,244
1075.7469,244
1075.9291,243
1076.1111,243
1076.2932,246
1076.4752,251
1076.6572,388
1076.8392,253
1077.0212,245
1077.2031,244
1077.3851,245
1077.567,243
1077.749,243
1077.9309,245
1078.1128,243
1078.2946,246
1078.4764,246
1078.6583,243
1078.8401,242
1079.022,245
1079.2037,243
1079.3855,245
1079.5673,245
1079.7489,244
1079.9307,243
1080.1124,246
1080.2941,244
1080.4757,244
1080.6573,246
1080.839,243
1081.0206,243
1081.2023,244
1081.3838,247
1081.5654,245
1081.7469,246
1081.9285,246
1082.11,248
1082.2915,245
1082.473,246
1082.6545,243
1082.8359,245
1083.0173,245
1083.1989,246
1083.3802,242
1083.5616,247
1083.7429,244
1083.9243,244
1084.1057,242
1084.287,243
1084.4683,245
1084.6495,243
1084.8308,245
1085.0121,244
1085.1934,245
1085.3745,244
1085.5558,244
1085.7369,244
1085.9181,242
1086.0992,246
1086.2804,243
1086.4615,244
1086.6426,244
1086.8237,247
1087.0048,243
1087.1858,243
1087.3668,244
1087.5479,245
1087.7289,243
1087.9099,243
1088.0908,244
1088.2717,245
1088.4528,244
1088.6337,247
1088.8146,244
1088.9954,244
1089.1763,246
1089.3572,243
1089.538,243
1089.7188,244
1089.8995,244
1090.0803,243
1090.2611,242
1090.4419,244
1090.6226,243
1090.8033,243
1090.984,243
1091.1647,243
1091.3453,244
1091.526,242
1091.7067,240
1091.8872,243
1092.0679,246
1092.2484,248
1092.429,244
1092.6095,244
1092.79,241
1092.9705,244
1093.151,244
1093.3314,244
1093.512,245
1093.6924,245
1093.8728,244
1094.0532,244
1094.2335,244
1094.4139,245
1094.5942,247
1094.7747,243
1094.955,243
1095.1353,242
1095.3156,244
1095.4957,245
1095.676,244
1095.8562,242
1096.0365,243
1096.2167,245
1096.3969,244
1096.577,242
1096.7571,243
1096.9373,244
1097.1173,242
1097.2975,249
1097.4775,243
1097.6576,247
1097.8376,243
1098.0176,241
1098.1976,245
1098.3776,246
1098.5576,245
1098.7375,243
1098.9175,243
1099.0974,246
1099.2772,246
1099.4572,244
1099.637,243
1099.8169,243
1099.9967,244
1100.1765,243
1100.3563,246
1100.536,245
1100.7158,244
1100.8955,243
1101.0753,245
1101.255,243
1101.4347,245
1101.6143,244
1101.7939,243
1101.9736,244
1102.1532,246
1102.3328,246
1102.5123,246
1102.6919,248
1102.8715,246
1103.051,243
1103.2305,245
1103.41,246
1103.5895,249
1103.7689,245
