Date and Time:                Wed Dec 4 17:51:48.792 2024
Software Version:             4.32.30091.0
Temperature (C):              -80
Model:                        DU420_OE
Data Type:                    Counts
Acquisition Mode:             Single Scan
Trigger Mode:                 Internal
Exposure Time (secs):         100
Readout Mode:                 Full Vertical Binning
Horizontal binning:           1
Shutter Mode:                 Fully AUTO
TTL level:                    High
Time to open:                 10 ms
Time to close:                0 ms
Extended Data Range:          off
Horizontally flipped:         false
Vertical Shift Speed (usecs): 32.25
Pixel Readout Time (usecs):   10
Serial Number:                CCD-28590
Pre-Amplifier Gain:           1.7x
Spurious Noise Filter Mode:   No Filter
Photon counted:               false
Data Averaging Filter Mode:   No Filter
KY193i:
Serial Number:                KY-4498
Wavelength (nm):              1023.66
Grating Groove Density (l/mm):600
Grating Blaze:                1000nm



926.90875,251
927.10028,250
927.29187,254
927.4834,254
927.67499,251
927.86652,252
928.05804,250
928.24957,253
928.44104,254
928.63257,254
928.8241,250
929.01556,252
929.20709,254
929.39856,254
929.59003,253
929.78149,253
929.97296,256
930.16443,255
930.35583,254
930.5473,254
930.73871,255
930.93018,258
931.12158,255
931.31299,261
931.50439,254
931.6958,254
931.88721,257
932.07855,257
932.26996,259
932.4613,255
932.65265,254
932.84399,255
933.0354,259
933.22668,257
933.41803,256
933.60938,254
933.80066,254
933.992,258
934.18329,260
934.37457,257
934.56586,260
934.75714,258
934.94843,257
935.13971,256
935.33099,258
935.52222,259
935.71344,259
935.90472,259
936.09595,259
936.28717,259
936.47839,259
936.66956,258
936.86078,259
937.05194,258
937.24316,258
937.43433,258
937.62549,262
937.81665,260
938.00781,261
938.19897,259
938.39014,261
938.58124,261
938.77234,259
938.9635,263
939.1546,257
939.3457,261
939.5368,262
939.72791,264
939.91895,263
940.11005,262
940.30109,266
940.49213,264
940.68323,262
940.87427,263
941.06525,264
941.25629,263
941.44733,263
941.63831,262
941.82935,266
942.02032,262
942.2113,268
942.40228,266
942.59326,267
942.78424,268
942.97516,268
943.16614,268
943.35706,266
943.54803,267
943.73895,269
943.92987,265
944.12079,273
944.31165,269
944.50256,269
944.69342,270
944.88434,271
945.0752,272
945.26605,270
945.45691,273
945.64777,275
945.83856,274
946.02942,275
946.22021,278
946.41107,277
946.60187,277
946.79266,278
946.98346,278
947.17426,281
947.36499,276
947.55579,276
947.74652,275
947.93726,280
948.12799,281
948.31873,282
948.50946,284
948.7002,285
948.89093,285
949.0816,284
949.27228,289
949.46301,287
949.65369,287
949.8443,286
950.03497,281
950.22565,286
950.41626,291
950.60693,288
950.79755,292
950.98816,289
951.17877,293
951.36938,292
951.56,293
951.75055,293
951.94116,297
952.13171,297
952.32227,297
952.51282,301
952.70337,305
952.89392,302
953.08441,306
953.27496,298
953.46545,305
953.65594,303
953.84644,301
954.03693,308
954.22742,307
954.41791,310
954.60834,317
954.79883,316
954.98926,318
955.17969,322
955.37012,320
955.56055,320
955.75092,329
955.94135,335
956.13171,335
956.32208,340
956.51251,338
956.70288,340
956.89319,336
957.08356,342
957.27393,347
957.46423,349
957.65454,347
957.84485,354
958.03516,356
958.22546,354
958.41577,355
958.60602,359
958.79633,358
958.98657,362
959.17682,358
959.36707,372
959.55731,1037
959.74756,1072
959.93774,528
960.12799,362
960.31818,374
960.50836,364
960.69855,372
960.88873,359
961.07892,368
961.26904,365
961.45923,365
961.64935,361
961.83948,360
962.0296,364
962.21973,360
962.40979,364
962.59991,361
962.78998,357
962.9801,364
963.17017,362
963.36023,363
963.55023,358
963.7403,358
963.9303,360
964.12036,360
964.31036,367
964.50037,381
964.69037,473
964.88037,366
965.07031,365
965.26031,363
965.45026,353
965.6402,362
965.83014,365
966.02008,368
966.21002,366
966.3999,354
966.58984,357
966.77972,359
966.9696,368
967.15948,361
967.34937,365
967.53925,361
967.72906,361
967.91895,366
968.10876,362
968.29858,363
968.4884,375
968.67822,367
968.86798,371
969.0578,373
969.24756,374
969.43732,377
969.62708,389
969.81683,389
970.00659,386
970.19629,394
970.38599,393
970.57574,394
970.76544,393
970.95514,408
971.14478,408
971.33447,410
971.52417,421
971.71381,418
971.90344,419
972.09308,426
972.28271,442
972.47235,458
972.66193,450
972.8515,448
973.04114,438
973.23071,451
973.42029,451
973.6098,458
973.79938,457
973.98889,460
974.17847,463
974.36798,466
974.5575,476
974.74701,468
974.93646,475
975.12598,474
975.31543,481
975.50488,478
975.69434,483
975.88379,486
976.07324,483
976.26263,487
976.45209,502
976.64148,506
976.83087,509
977.02026,504
977.20966,494
977.39899,500
977.58838,510
977.77771,509
977.96704,512
978.15637,509
978.3457,517
978.53497,522
978.7243,520
978.91357,518
979.10284,516
979.29211,524
979.48138,531
979.67065,517
979.85986,527
980.04913,526
980.23834,530
980.42755,525
980.61676,530
980.80591,537
980.99512,531
981.18427,530
981.37341,546
981.56256,543
981.75171,537
981.94086,538
982.12994,541
982.31909,537
982.50818,551
982.69727,546
982.88635,547
983.07544,549
983.26447,551
983.45355,554
983.64258,564
983.8316,568
984.02063,557
984.20959,565
984.39862,573
984.58759,587
984.77661,584
984.96558,583
985.15448,581
985.34344,593
985.53241,593
985.72131,596
985.91022,592
986.09912,605
986.28802,620
986.47693,625
986.66577,624
986.85468,608
987.04352,627
987.23236,627
987.4212,646
987.61005,636
987.79883,644
987.98761,631
988.17645,654
988.36523,645
988.55396,645
988.74274,647
988.93152,671
989.12024,664
989.30896,660
989.49768,680
989.6864,663
989.87506,673
990.06378,677
990.25244,680
990.4411,690
990.62976,689
990.81842,713
991.00708,715
991.19568,723
991.38428,719
991.57288,725
991.76147,724
991.95007,715
992.13867,703
992.32721,729
992.51575,727
992.70428,719
992.89282,693
993.08136,713
993.26984,722
993.45837,728
993.64685,718
993.83533,716
994.0238,702
994.21222,683
994.4007,706
994.58911,709
994.77753,700
994.96594,694
995.15436,686
995.34271,682
995.53113,674
995.71948,673
995.90784,656
996.09619,653
996.28455,647
996.47284,628
996.66119,620
996.84949,596
997.03778,581
997.22607,582
997.41431,574
997.6026,545
997.79083,535
997.97906,524
998.1673,518
998.35553,503
998.5437,519
998.73193,494
998.9201,479
999.10828,478
999.29645,469
999.48456,463
999.67273,462
999.86084,450
1000.049,438
1000.2371,440
1000.4252,441
1000.6132,437
1000.8013,448
1000.9894,434
1001.1774,433
1001.3655,427
1001.5535,419
1001.7415,418
1001.9295,419
1002.1175,416
1002.3055,413
1002.4935,420
1002.6814,411
1002.8694,408
1003.0573,407
1003.2452,398
1003.4332,396
1003.621,403
1003.809,395
1003.9968,385
1004.1847,391
1004.3726,378
1004.5604,381
1004.7482,375
1004.9361,370
1005.1239,369
1005.3117,368
1005.4995,365
1005.6873,359
1005.875,348
1006.0628,339
1006.2505,333
1006.4382,322
1006.626,316
1006.8137,309
1007.0014,306
1007.1891,295
1007.3768,290
1007.5644,281
1007.7521,267
1007.9397,259
1008.1273,254
1008.3149,250
1008.5026,249
1008.6902,249
1008.8777,246
1009.0653,245
1009.2529,244
1009.4404,246
1009.628,247
1009.8155,244
1010.003,247
1010.1905,248
1010.378,242
1010.5655,244
1010.7529,243
1010.9404,244
1011.1279,244
1011.3153,244
1011.5027,245
1011.6901,246
1011.8775,246
1012.0649,246
1012.2523,247
1012.4396,245
1012.627,246
1012.8143,244
1013.0016,245
1013.189,247
1013.3763,247
1013.5636,243
1013.7509,244
1013.9381,244
1014.1254,247
1014.3126,245
1014.4998,245
1014.6871,246
1014.8743,246
1015.0615,247
1015.2487,244
1015.4359,245
1015.623,247
1015.8101,245
1015.9973,246
1016.1844,245
1016.3715,243
1016.5586,245
1016.7457,247
1016.9328,246
1017.1198,244
1017.3069,245
1017.494,244
1017.681,245
1017.868,244
1018.055,243
1018.2419,244
1018.429,242
1018.6159,244
1018.8029,245
1018.9898,244
1019.1768,244
1019.3636,243
1019.5506,246
1019.7375,242
1019.9244,244
1020.1112,249
1020.2981,246
1020.4849,242
1020.6718,247
1020.8586,243
1021.0454,247
1021.2322,247
1021.4189,245
1021.6057,245
1021.7925,246
1021.9792,245
1022.166,246
1022.3527,259
1022.5394,469
1022.7261,265
1022.9128,248
1023.0995,246
1023.2861,245
1023.4728,245
1023.6594,245
1023.846,247
1024.0326,245
1024.2192,246
1024.4059,245
1024.5924,247
1024.7789,248
1024.9655,245
1025.1521,247
1025.3386,248
1025.525,248
1025.7115,248
1025.8981,246
1026.0845,247
1026.271,247
1026.4574,247
1026.6439,246
1026.8303,251
1027.0167,249
1027.2031,248
1027.3895,259
1027.5758,262
1027.7622,263
1027.9486,269
1028.1349,280
1028.3212,281
1028.5076,293
1028.6938,308
1028.8801,370
1029.0664,395
1029.2527,330
1029.4388,279
1029.6251,259
1029.8113,250
1029.9976,249
1030.1837,247
1030.3699,250
1030.556,248
1030.7422,247
1030.9283,249
1031.1145,248
1031.3007,245
1031.4867,247
1031.6729,246
1031.8589,247
1032.0449,247
1032.231,246
1032.417,247
1032.603,245
1032.7891,247
1032.9751,248
1033.161,245
1033.347,247
1033.533,247
1033.719,245
1033.9049,244
1034.0908,247
1034.2767,246
1034.4626,246
1034.6484,244
1034.8344,243
1035.0203,246
1035.2061,244
1035.3918,250
1035.5778,246
1035.7635,246
1035.9493,245
1036.1351,247
1036.3208,246
1036.5066,244
1036.6924,247
1036.8781,246
1037.0637,245
1037.2495,243
1037.4352,247
1037.6208,247
1037.8065,244
1037.9922,244
1038.1777,246
1038.3634,244
1038.549,243
1038.7346,244
1038.9202,246
1039.1057,245
1039.2913,245
1039.4768,244
1039.6624,246
1039.8479,241
1040.0333,245
1040.2189,243
1040.4043,244
1040.5897,246
1040.7753,245
1040.9607,246
1041.1461,245
1041.3314,242
1041.5168,247
1041.7023,246
1041.8876,246
1042.073,244
1042.2583,244
1042.4436,248
1042.6289,247
1042.8142,246
1042.9995,244
1043.1848,245
1043.37,243
1043.5553,245
1043.7405,246
1043.9257,244
1044.111,244
1044.2961,244
1044.4813,244
1044.6664,246
1044.8516,247
1045.0367,245
1045.2218,245
1045.407,247
1045.592,244
1045.7771,243
1045.9622,246
1046.1472,244
1046.3323,244
1046.5173,247
1046.7023,247
1046.8873,245
1047.0723,246
1047.2572,244
1047.4421,247
1047.6271,248
1047.812,245
1047.9969,243
1048.1819,245
1048.3667,243
1048.5516,243
1048.7365,245
1048.9213,245
1049.1062,246
1049.291,246
1049.4757,245
1049.6605,246
1049.8453,247
1050.03,245
1050.2148,247
1050.3995,245
1050.5842,244
1050.7689,247
1050.9536,247
1051.1383,245
1051.323,245
1051.5077,245
1051.6923,247
1051.877,245
1052.0615,245
1052.2461,245
1052.4307,247
1052.6152,248
1052.7998,244
1052.9843,244
1053.1688,244
1053.3534,244
1053.5378,246
1053.7223,245
1053.9067,243
1054.0912,245
1054.2756,246
1054.4601,245
1054.6445,247
1054.8289,246
1055.0133,247
1055.1976,246
1055.382,245
1055.5663,248
1055.7506,247
1055.9349,246
1056.1193,245
1056.3035,246
1056.4878,245
1056.672,247
1056.8562,246
1057.0404,247
1057.2246,246
1057.4088,245
1057.593,245
1057.7772,246
1057.9613,244
1058.1455,244
1058.3296,247
1058.5137,247
1058.6978,245
1058.8818,247
1059.0659,246
1059.25,247
1059.434,246
1059.618,247
1059.802,245
1059.986,247
1060.17,246
1060.3539,244
1060.5378,247
1060.7218,244
1060.9058,246
1061.0896,247
1061.2736,248
1061.4574,243
1061.6412,248
1061.8251,245
1062.0089,249
1062.1927,250
1062.3765,256
1062.5603,255
1062.744,261
1062.9279,266
1063.1116,265
1063.2953,271
1063.479,286
1063.6627,308
1063.8464,313
1064.03,285
1064.2137,267
1064.3973,256
1064.5809,255
1064.7645,248
1064.9481,247
1065.1317,247
1065.3153,249
1065.4988,248
1065.6824,246
1065.8658,247
1066.0493,243
1066.2329,245
1066.4164,245
1066.5997,247
1066.7832,246
1066.9667,247
1067.15,245
1067.3335,243
1067.5168,246
1067.7002,245
1067.8835,248
1068.0669,242
1068.2502,245
1068.4335,244
1068.6168,247
1068.8,245
1068.9834,244
1069.1666,246
1069.3499,247
1069.5331,247
1069.7162,247
1069.8994,244
1070.0826,246
1070.2657,247
1070.4489,246
1070.6321,247
1070.8152,253
1070.9982,257
1071.1813,251
1071.3644,249
1071.5474,246
1071.7305,245
1071.9135,245
1072.0964,242
1072.2794,244
1072.4624,242
1072.6454,242
1072.8284,244
1073.0112,247
1073.1942,248
1073.3771,243
1073.5599,245
1073.7428,243
1073.9257,244
1074.1085,245
1074.2913,243
1074.4741,245
1074.6569,245
1074.8397,244
1075.0225,245
1075.2052,246
1075.3879,246
1075.5706,245
1075.7533,244
1075.9359,247
1076.1187,247
1076.3013,244
1076.4839,244
1076.6665,245
1076.8491,246
1077.0317,245
1077.2142,244
1077.3969,246
1077.5793,245
1077.762,245
1077.9445,246
1078.127,245
1078.3093,245
1078.4918,243
1078.6743,243
1078.8567,246
1079.0392,244
1079.2216,246
1079.4039,245
1079.5863,245
1079.7687,246
1079.9509,244
1080.1333,242
1080.3156,243
1080.4979,244
1080.6802,247
1080.8624,246
1081.0447,245
1081.2269,245
1081.4091,244
1081.5913,246
1081.7734,245
1081.9556,245
1082.1377,242
1082.3198,246
1082.502,244
1082.6841,245
1082.8662,246
1083.0482,244
1083.2303,245
1083.4124,247
1083.5944,244
1083.7764,244
1083.9584,242
1084.1403,245
1084.3223,244
1084.5042,386
1084.6862,430
1084.868,469
1085.0499,727
1085.2318,493
1085.4137,290
1085.5955,247
1085.7773,247
1085.9591,246
1086.1409,247
1086.3226,245
1086.5044,244
1086.6862,244
1086.8679,245
1087.0497,246
1087.2313,245
1087.413,245
1087.5947,243
1087.7764,242
1087.958,243
1088.1395,243
1088.3212,244
1088.5027,242
1088.6843,244
1088.8658,243
1089.0474,244
1089.2289,244
1089.4104,244
1089.5919,244
1089.7733,244
1089.9548,245
1090.1362,244
1090.3176,246
1090.499,246
1090.6804,244
1090.8618,247
1091.0432,244
1091.2245,244
1091.4059,243
1091.5872,246
1091.7684,242
1091.9497,249
1092.131,245
1092.3123,243
1092.4934,245
1092.6747,247
1092.8558,246
1093.037,243
1093.2181,245
1093.3993,245
1093.5804,246
1093.7615,246
1093.9426,243
1094.1237,244
1094.3047,247
1094.4857,246
1094.6667,244
1094.8478,246
1095.0288,245
1095.2097,243
1095.3907,244
1095.5717,247
1095.7526,243
1095.9335,247
1096.1144,246
1096.2953,246
1096.4761,246
1096.657,245
1096.8378,244
1097.0186,246
1097.1993,245
1097.3801,245
1097.5609,243
1097.7416,244
1097.9224,243
1098.103,247
1098.2837,244
1098.4644,245
1098.645,246
1098.8257,245
1099.0063,244
1099.1869,245
1099.3676,247
1099.5481,245
1099.7286,243
1099.9092,244
1100.0897,243
1100.2701,244
1100.4507,243
1100.6311,244
1100.8116,245
1100.9921,244
1101.1725,243
1101.3529,244
1101.5332,245
1101.7136,246
1101.8939,244
1102.0742,245
1102.2546,245
1102.4349,245
1102.6151,243
1102.7954,245
1102.9757,244
1103.1559,246
1103.3361,246
1103.5164,244
1103.6965,243
1103.8767,244
1104.0568,245
1104.2369,247
1104.417,247
1104.5972,245
1104.7772,245
1104.9573,244
1105.1373,244
1105.3173,245
1105.4973,243
1105.6772,245
1105.8573,244
1106.0372,246
1106.2172,244
1106.3971,245
1106.577,246
1106.7568,245
1106.9368,241
1107.1166,246
1107.2964,246
1107.4762,242
1107.656,245
1107.8358,243
1108.0156,243
1108.1953,245
1108.375,243
1108.5547,245
1108.7345,247
1108.9141,243
1109.0938,245
1109.2734,244
1109.453,243
1109.6327,246
1109.8123,243
1109.9918,245
1110.1714,244
1110.3508,244
1110.5304,241
1110.7098,246
1110.8894,249
1111.0688,243
1111.2483,245
1111.4277,244
1111.6072,244
1111.7865,244
1111.9659,243
1112.1453,243
1112.3246,245
1112.5039,242
1112.6832,246
1112.8625,244
1113.0417,246
1113.2211,245
1113.4003,240
1113.5795,244
1113.7587,246
1113.9379,246
1114.1171,242
1114.2961,244
1114.4753,245
1114.6544,245
1114.8335,244
1115.0126,244
1115.1917,243
1115.3706,244
1115.5497,245
1115.7286,243
1115.9077,246
1116.0867,244
1116.2656,249
1116.4445,245
1116.6234,248
1116.8024,243
1116.9812,245
1117.16,245
1117.3389,246
