Date and Time:                Wed Dec 4 18:03:59.020 2024
Software Version:             4.32.30091.0
Temperature (C):              -80
Model:                        DU420_OE
Data Type:                    Counts
Acquisition Mode:             Single Scan
Trigger Mode:                 Internal
Exposure Time (secs):         100
Readout Mode:                 Full Vertical Binning
Horizontal binning:           1
Shutter Mode:                 Fully AUTO
TTL level:                    High
Time to open:                 10 ms
Time to close:                0 ms
Extended Data Range:          off
Horizontally flipped:         false
Vertical Shift Speed (usecs): 32.25
Pixel Readout Time (usecs):   10
Serial Number:                CCD-28590
Pre-Amplifier Gain:           1.7x
Spurious Noise Filter Mode:   No Filter
Photon counted:               false
Data Averaging Filter Mode:   No Filter
KY193i:
Serial Number:                KY-4498
Wavelength (nm):              1023.66
Grating Groove Density (l/mm):600
Grating Blaze:                1000nm



926.90875,262
927.10028,265
927.29187,266
927.4834,266
927.67499,265
927.86652,262
928.05804,265
928.24957,266
928.44104,264
928.63257,267
928.8241,266
929.01556,262
929.20709,263
929.39856,266
929.59003,267
929.78149,268
929.97296,272
930.16443,265
930.35583,266
930.5473,271
930.73871,271
930.93018,271
931.12158,268
931.31299,271
931.50439,268
931.6958,272
931.88721,268
932.07855,270
932.26996,272
932.4613,272
932.65265,275
932.84399,271
933.0354,269
933.22668,275
933.41803,272
933.60938,275
933.80066,275
933.992,275
934.18329,277
934.37457,274
934.56586,279
934.75714,276
934.94843,276
935.13971,278
935.33099,277
935.52222,275
935.71344,273
935.90472,277
936.09595,275
936.28717,279
936.47839,275
936.66956,280
936.86078,280
937.05194,279
937.24316,280
937.43433,282
937.62549,280
937.81665,281
938.00781,280
938.19897,280
938.39014,283
938.58124,280
938.77234,284
938.9635,279
939.1546,281
939.3457,281
939.5368,287
939.72791,287
939.91895,287
940.11005,284
940.30109,292
940.49213,287
940.68323,286
940.87427,289
941.06525,289
941.25629,292
941.44733,288
941.63831,288
941.82935,288
942.02032,295
942.2113,301
942.40228,298
942.59326,293
942.78424,294
942.97516,296
943.16614,299
943.35706,301
943.54803,301
943.73895,299
943.92987,300
944.12079,300
944.31165,303
944.50256,303
944.69342,300
944.88434,304
945.0752,307
945.26605,311
945.45691,309
945.64777,311
945.83856,310
946.02942,311
946.22021,312
946.41107,314
946.60187,316
946.79266,318
946.98346,321
947.17426,318
947.36499,320
947.55579,323
947.74652,325
947.93726,330
948.12799,332
948.31873,327
948.50946,329
948.7002,334
948.89093,336
949.0816,336
949.27228,335
949.46301,342
949.65369,336
949.8443,336
950.03497,346
950.22565,342
950.41626,352
950.60693,351
950.79755,351
950.98816,357
951.17877,354
951.36938,359
951.56,364
951.75055,364
951.94116,370
952.13171,361
952.32227,373
952.51282,372
952.70337,385
952.89392,380
953.08441,379
953.27496,383
953.46545,393
953.65594,384
953.84644,391
954.03693,398
954.22742,398
954.41791,402
954.60834,418
954.79883,423
954.98926,424
955.17969,427
955.37012,431
955.56055,435
955.75092,440
955.94135,451
956.13171,446
956.32208,459
956.51251,470
956.70288,471
956.89319,468
957.08356,475
957.27393,476
957.46423,474
957.65454,499
957.84485,490
958.03516,495
958.22546,511
958.41577,503
958.60602,518
958.79633,515
958.98657,511
959.17682,514
959.36707,522
959.55731,526
959.74756,528
959.93774,525
960.12799,523
960.31818,528
960.50836,544
960.69855,537
960.88873,525
961.07892,530
961.26904,527
961.45923,526
961.64935,525
961.83948,522
962.0296,535
962.21973,519
962.40979,522
962.59991,591
962.78998,835
962.9801,587
963.17017,532
963.36023,523
963.55023,530
963.7403,511
963.9303,516
964.12036,517
964.31036,519
964.50037,526
964.69037,518
964.88037,518
965.07031,510
965.26031,513
965.45026,515
965.6402,524
965.83014,526
966.02008,527
966.21002,522
966.3999,520
966.58984,517
966.77972,518
966.9696,519
967.15948,498
967.34937,508
967.53925,514
967.72906,519
967.91895,524
968.10876,525
968.29858,518
968.4884,528
968.67822,527
968.86798,529
969.0578,524
969.24756,541
969.43732,546
969.62708,545
969.81683,547
970.00659,550
970.19629,554
970.38599,571
970.57574,581
970.76544,596
970.95514,580
971.14478,593
971.33447,594
971.52417,609
971.71381,616
971.90344,623
972.09308,620
972.28271,648
972.47235,656
972.66193,650
972.8515,648
973.04114,652
973.23071,666
973.42029,669
973.6098,693
973.79938,695
973.98889,697
974.17847,698
974.36798,698
974.5575,691
974.74701,706
974.93646,709
975.12598,712
975.31543,709
975.50488,704
975.69434,719
975.88379,703
976.07324,691
976.26263,813
976.45209,966
976.64148,951
976.83087,902
977.02026,809
977.20966,745
977.39899,743
977.58838,755
977.77771,749
977.96704,754
978.15637,775
978.3457,765
978.53497,743
978.7243,753
978.91357,746
979.10284,756
979.29211,762
979.48138,765
979.67065,761
979.85986,766
980.04913,762
980.23834,749
980.42755,743
980.61676,759
980.80591,772
980.99512,757
981.18427,770
981.37341,752
981.56256,787
981.75171,792
981.94086,775
982.12994,770
982.31909,760
982.50818,786
982.69727,801
982.88635,806
983.07544,781
983.26447,772
983.45355,776
983.64258,774
983.8316,799
984.02063,795
984.20959,789
984.39862,792
984.58759,801
984.77661,822
984.96558,816
985.15448,802
985.34344,814
985.53241,831
985.72131,832
985.91022,814
986.09912,833
986.28802,850
986.47693,870
986.66577,850
986.85468,863
987.04352,840
987.23236,858
987.4212,891
987.61005,885
987.79883,872
987.98761,887
988.17645,886
988.36523,868
988.55396,882
988.74274,906
988.93152,899
989.12024,877
989.30896,880
989.49768,896
989.6864,919
989.87506,893
990.06378,918
990.25244,908
990.4411,915
990.62976,929
990.81842,954
991.00708,942
991.19568,955
991.38428,935
991.57288,955
991.76147,934
991.95007,939
992.13867,941
992.32721,946
992.51575,932
992.70428,926
992.89282,938
993.08136,900
993.26984,923
993.45837,923
993.64685,906
993.83533,900
994.0238,901
994.21222,899
994.4007,899
994.58911,901
994.77753,903
994.96594,904
995.15436,871
995.34271,882
995.53113,857
995.71948,841
995.90784,835
996.09619,824
996.28455,802
996.47284,800
996.66119,763
996.84949,746
997.03778,714
997.22607,722
997.41431,688
997.6026,658
997.79083,642
997.97906,639
998.1673,647
998.35553,631
998.5437,637
998.73193,595
998.9201,586
999.10828,561
999.29645,554
999.48456,541
999.67273,535
999.86084,525
1000.049,530
1000.2371,527
1000.4252,503
1000.6132,508
1000.8013,514
1000.9894,504
1001.1774,507
1001.3655,492
1001.5535,481
1001.7415,474
1001.9295,473
1002.1175,472
1002.3055,469
1002.4935,481
1002.6814,479
1002.8694,468
1003.0573,462
1003.2452,457
1003.4332,450
1003.621,448
1003.809,450
1003.9968,439
1004.1847,427
1004.3726,425
1004.5604,420
1004.7482,418
1004.9361,406
1005.1239,417
1005.3117,404
1005.4995,404
1005.6873,395
1005.875,375
1006.0628,365
1006.2505,365
1006.4382,350
1006.626,343
1006.8137,331
1007.0014,325
1007.1891,321
1007.3768,300
1007.5644,291
1007.7521,279
1007.9397,266
1008.1273,258
1008.3149,251
1008.5026,254
1008.6902,248
1008.8777,245
1009.0653,247
1009.2529,247
1009.4404,244
1009.628,247
1009.8155,244
1010.003,249
1010.1905,247
1010.378,247
1010.5655,243
1010.7529,246
1010.9404,244
1011.1279,246
1011.3153,244
1011.5027,243
1011.6901,244
1011.8775,246
1012.0649,246
1012.2523,247
1012.4396,246
1012.627,244
1012.8143,247
1013.0016,246
1013.189,247
1013.3763,246
1013.5636,244
1013.7509,246
1013.9381,247
1014.1254,243
1014.3126,243
1014.4998,249
1014.6871,245
1014.8743,243
1015.0615,243
1015.2487,247
1015.4359,245
1015.623,244
1015.8101,243
1015.9973,246
1016.1844,243
1016.3715,244
1016.5586,244
1016.7457,245
1016.9328,244
1017.1198,246
1017.3069,246
1017.494,244
1017.681,243
1017.868,245
1018.055,246
1018.2419,246
1018.429,247
1018.6159,244
1018.8029,246
1018.9898,246
1019.1768,244
1019.3636,242
1019.5506,245
1019.7375,244
1019.9244,246
1020.1112,246
1020.2981,244
1020.4849,246
1020.6718,245
1020.8586,244
1021.0454,247
1021.2322,246
1021.4189,246
1021.6057,243
1021.7925,247
1021.9792,245
1022.166,247
1022.3527,248
1022.5394,247
1022.7261,247
1022.9128,244
1023.0995,245
1023.2861,244
1023.4728,247
1023.6594,247
1023.846,245
1024.0326,247
1024.2192,248
1024.4059,245
1024.5924,245
1024.7789,245
1024.9655,245
1025.1521,249
1025.3386,247
1025.525,245
1025.7115,248
1025.8981,246
1026.0845,247
1026.271,248
1026.4574,248
1026.6439,248
1026.8303,247
1027.0167,252
1027.2031,251
1027.3895,256
1027.5758,266
1027.7622,277
1027.9486,278
1028.1349,276
1028.3212,293
1028.5076,310
1028.6938,352
1028.8801,418
1029.0664,421
1029.2527,351
1029.4388,300
1029.6251,270
1029.8113,252
1029.9976,251
1030.1837,248
1030.3699,247
1030.556,249
1030.7422,249
1030.9283,247
1031.1145,247
1031.3007,247
1031.4867,247
1031.6729,247
1031.8589,247
1032.0449,244
1032.231,247
1032.417,248
1032.603,247
1032.7891,245
1032.9751,247
1033.161,247
1033.347,245
1033.533,246
1033.719,245
1033.9049,245
1034.0908,245
1034.2767,247
1034.4626,247
1034.6484,248
1034.8344,245
1035.0203,245
1035.2061,245
1035.3918,248
1035.5778,244
1035.7635,245
1035.9493,246
1036.1351,245
1036.3208,247
1036.5066,246
1036.6924,245
1036.8781,247
1037.0637,245
1037.2495,246
1037.4352,246
1037.6208,248
1037.8065,244
1037.9922,245
1038.1777,245
1038.3634,247
1038.549,245
1038.7346,245
1038.9202,246
1039.1057,247
1039.2913,246
1039.4768,246
1039.6624,246
1039.8479,245
1040.0333,245
1040.2189,247
1040.4043,245
1040.5897,245
1040.7753,242
1040.9607,245
1041.1461,244
1041.3314,245
1041.5168,242
1041.7023,246
1041.8876,248
1042.073,245
1042.2583,247
1042.4436,246
1042.6289,246
1042.8142,244
1042.9995,246
1043.1848,243
1043.37,247
1043.5553,247
1043.7405,245
1043.9257,243
1044.111,248
1044.2961,244
1044.4813,247
1044.6664,244
1044.8516,247
1045.0367,246
1045.2218,247
1045.407,248
1045.592,250
1045.7771,247
1045.9622,247
1046.1472,244
1046.3323,246
1046.5173,249
1046.7023,244
1046.8873,246
1047.0723,244
1047.2572,247
1047.4421,245
1047.6271,244
1047.812,245
1047.9969,246
1048.1819,247
1048.3667,244
1048.5516,245
1048.7365,246
1048.9213,247
1049.1062,247
1049.291,244
1049.4757,247
1049.6605,246
1049.8453,244
1050.03,247
1050.2148,246
1050.3995,247
1050.5842,245
1050.7689,248
1050.9536,245
1051.1383,247
1051.323,245
1051.5077,244
1051.6923,245
1051.877,246
1052.0615,244
1052.2461,246
1052.4307,246
1052.6152,247
1052.7998,245
1052.9843,246
1053.1688,246
1053.3534,244
1053.5378,248
1053.7223,246
1053.9067,244
1054.0912,247
1054.2756,246
1054.4601,246
1054.6445,248
1054.8289,246
1055.0133,246
1055.1976,246
1055.382,246
1055.5663,246
1055.7506,245
1055.9349,247
1056.1193,245
1056.3035,248
1056.4878,247
1056.672,245
1056.8562,245
1057.0404,244
1057.2246,246
1057.4088,245
1057.593,248
1057.7772,245
1057.9613,245
1058.1455,245
1058.3296,249
1058.5137,248
1058.6978,243
1058.8818,246
1059.0659,247
1059.25,243
1059.434,244
1059.618,244
1059.802,246
1059.986,246
1060.17,246
1060.3539,246
1060.5378,249
1060.7218,248
1060.9058,244
1061.0896,247
1061.2736,248
1061.4574,246
1061.6412,247
1061.8251,247
1062.0089,249
1062.1927,249
1062.3765,256
1062.5603,260
1062.744,263
1062.9279,261
1063.1116,266
1063.2953,279
1063.479,285
1063.6627,308
1063.8464,307
1064.03,286
1064.2137,268
1064.3973,256
1064.5809,251
1064.7645,245
1064.9481,249
1065.1317,247
1065.3153,246
1065.4988,249
1065.6824,247
1065.8658,246
1066.0493,244
1066.2329,247
1066.4164,244
1066.5997,248
1066.7832,247
1066.9667,246
1067.15,247
1067.3335,246
1067.5168,246
1067.7002,245
1067.8835,246
1068.0669,246
1068.2502,248
1068.4335,245
1068.6168,808
1068.8,249
1068.9834,246
1069.1666,246
1069.3499,248
1069.5331,242
1069.7162,245
1069.8994,247
1070.0826,244
1070.2657,244
1070.4489,243
1070.6321,244
1070.8152,244
1070.9982,243
1071.1813,242
1071.3644,245
1071.5474,245
1071.7305,244
1071.9135,244
1072.0964,245
1072.2794,244
1072.4624,245
1072.6454,244
1072.8284,245
1073.0112,244
1073.1942,248
1073.3771,247
1073.5599,246
1073.7428,245
1073.9257,245
1074.1085,244
1074.2913,244
1074.4741,246
1074.6569,244
1074.8397,244
1075.0225,245
1075.2052,247
1075.3879,244
1075.5706,244
1075.7533,244
1075.9359,247
1076.1187,246
1076.3013,242
1076.4839,247
1076.6665,248
1076.8491,246
1077.0317,246
1077.2142,248
1077.3969,244
1077.5793,243
1077.762,246
1077.9445,241
1078.127,245
1078.3093,244
1078.4918,245
1078.6743,246
1078.8567,247
1079.0392,244
1079.2216,246
1079.4039,245
1079.5863,246
1079.7687,245
1079.9509,246
1080.1333,244
1080.3156,247
1080.4979,244
1080.6802,247
1080.8624,247
1081.0447,244
1081.2269,244
1081.4091,243
1081.5913,245
1081.7734,244
1081.9556,245
1082.1377,243
1082.3198,247
1082.502,245
1082.6841,244
1082.8662,244
1083.0482,244
1083.2303,245
1083.4124,241
1083.5944,244
1083.7764,246
1083.9584,244
1084.1403,246
1084.3223,244
1084.5042,247
1084.6862,246
1084.868,245
1085.0499,245
1085.2318,243
1085.4137,246
1085.5955,243
1085.7773,246
1085.9591,247
1086.1409,244
1086.3226,246
1086.5044,246
1086.6862,244
1086.8679,245
1087.0497,243
1087.2313,242
1087.413,246
1087.5947,246
1087.7764,247
1087.958,245
1088.1395,244
1088.3212,246
1088.5027,245
1088.6843,244
1088.8658,244
1089.0474,245
1089.2289,246
1089.4104,245
1089.5919,245
1089.7733,247
1089.9548,246
1090.1362,247
1090.3176,245
1090.499,247
1090.6804,245
1090.8618,245
1091.0432,247
1091.2245,243
1091.4059,244
1091.5872,244
1091.7684,245
1091.9497,249
1092.131,246
1092.3123,245
1092.4934,245
1092.6747,244
1092.8558,244
1093.037,245
1093.2181,243
1093.3993,245
1093.5804,245
1093.7615,243
1093.9426,245
1094.1237,245
1094.3047,245
1094.4857,244
1094.6667,246
1094.8478,245
1095.0288,246
1095.2097,245
1095.3907,245
1095.5717,245
1095.7526,246
1095.9335,246
1096.1144,245
1096.2953,245
1096.4761,245
1096.657,245
1096.8378,245
1097.0186,247
1097.1993,245
1097.3801,247
1097.5609,244
1097.7416,246
1097.9224,245
1098.103,244
1098.2837,244
1098.4644,245
1098.645,245
1098.8257,242
1099.0063,243
1099.1869,244
1099.3676,245
1099.5481,243
1099.7286,244
1099.9092,243
1100.0897,243
1100.2701,245
1100.4507,243
1100.6311,243
1100.8116,242
1100.9921,247
1101.1725,243
1101.3529,245
1101.5332,243
1101.7136,245
1101.8939,244
1102.0742,247
1102.2546,244
1102.4349,245
1102.6151,245
1102.7954,244
1102.9757,245
1103.1559,244
1103.3361,246
1103.5164,243
1103.6965,242
1103.8767,244
1104.0568,244
1104.2369,247
1104.417,247
1104.5972,243
1104.7772,243
1104.9573,246
1105.1373,244
1105.3173,244
1105.4973,244
1105.6772,245
1105.8573,247
1106.0372,246
1106.2172,246
1106.3971,245
1106.577,244
1106.7568,244
1106.9368,245
1107.1166,246
1107.2964,243
1107.4762,243
1107.656,246
1107.8358,243
1108.0156,244
1108.1953,244
1108.375,246
1108.5547,245
1108.7345,244
1108.9141,243
1109.0938,245
1109.2734,244
1109.453,243
1109.6327,243
1109.8123,244
1109.9918,246
1110.1714,244
1110.3508,242
1110.5304,243
1110.7098,244
1110.8894,246
1111.0688,244
1111.2483,244
1111.4277,245
1111.6072,245
1111.7865,242
1111.9659,243
1112.1453,244
1112.3246,243
1112.5039,244
1112.6832,245
1112.8625,246
1113.0417,246
1113.2211,241
1113.4003,243
1113.5795,245
1113.7587,247
1113.9379,242
1114.1171,241
1114.2961,246
1114.4753,245
1114.6544,245
1114.8335,243
1115.0126,245
1115.1917,246
1115.3706,246
1115.5497,244
1115.7286,244
1115.9077,248
1116.0867,246
1116.2656,246
1116.4445,246
1116.6234,244
1116.8024,247
1116.9812,245
1117.16,246
1117.3389,247
