Date and Time:                Wed Dec 4 17:26:43.271 2024
Software Version:             4.32.30091.0
Temperature (C):              -80
Model:                        DU420_OE
Data Type:                    Counts
Acquisition Mode:             Single Scan
Trigger Mode:                 Internal
Exposure Time (secs):         100
Readout Mode:                 Full Vertical Binning
Horizontal binning:           1
Shutter Mode:                 Fully AUTO
TTL level:                    High
Time to open:                 10 ms
Time to close:                0 ms
Extended Data Range:          off
Horizontally flipped:         false
Vertical Shift Speed (usecs): 32.25
Pixel Readout Time (usecs):   10
Serial Number:                CCD-28590
Pre-Amplifier Gain:           1.7x
Spurious Noise Filter Mode:   No Filter
Photon counted:               false
Data Averaging Filter Mode:   No Filter
KY193i:
Serial Number:                KY-4498
Wavelength (nm):              1023.66
Grating Groove Density (l/mm):600
Grating Blaze:                1000nm



926.90875,251
927.10028,251
927.29187,249
927.4834,253
927.67499,253
927.86652,256
928.05804,253
928.24957,252
928.44104,255
928.63257,252
928.8241,251
929.01556,251
929.20709,249
929.39856,252
929.59003,251
929.78149,254
929.97296,254
930.16443,256
930.35583,251
930.5473,253
930.73871,254
930.93018,263
931.12158,255
931.31299,254
931.50439,254
931.6958,258
931.88721,255
932.07855,256
932.26996,256
932.4613,259
932.65265,258
932.84399,254
933.0354,259
933.22668,256
933.41803,260
933.60938,255
933.80066,258
933.992,258
934.18329,257
934.37457,256
934.56586,259
934.75714,255
934.94843,255
935.13971,258
935.33099,259
935.52222,257
935.71344,259
935.90472,255
936.09595,262
936.28717,261
936.47839,258
936.66956,256
936.86078,262
937.05194,259
937.24316,260
937.43433,259
937.62549,261
937.81665,260
938.00781,261
938.19897,261
938.39014,263
938.58124,262
938.77234,262
938.9635,262
939.1546,259
939.3457,262
939.5368,258
939.72791,265
939.91895,263
940.11005,263
940.30109,262
940.49213,267
940.68323,268
940.87427,265
941.06525,262
941.25629,261
941.44733,264
941.63831,269
941.82935,266
942.02032,266
942.2113,267
942.40228,270
942.59326,269
942.78424,266
942.97516,263
943.16614,269
943.35706,270
943.54803,269
943.73895,272
943.92987,270
944.12079,273
944.31165,274
944.50256,275
944.69342,274
944.88434,270
945.0752,275
945.26605,271
945.45691,277
945.64777,274
945.83856,275
946.02942,276
946.22021,278
946.41107,278
946.60187,278
946.79266,278
946.98346,278
947.17426,279
947.36499,279
947.55579,283
947.74652,282
947.93726,280
948.12799,279
948.31873,286
948.50946,284
948.7002,285
948.89093,289
949.0816,288
949.27228,286
949.46301,285
949.65369,290
949.8443,288
950.03497,292
950.22565,290
950.41626,299
950.60693,292
950.79755,295
950.98816,293
951.17877,297
951.36938,300
951.56,298
951.75055,301
951.94116,302
952.13171,303
952.32227,311
952.51282,311
952.70337,312
952.89392,319
953.08441,313
953.27496,315
953.46545,315
953.65594,321
953.84644,314
954.03693,323
954.22742,320
954.41791,324
954.60834,335
954.79883,331
954.98926,337
955.17969,339
955.37012,339
955.56055,346
955.75092,346
955.94135,358
956.13171,367
956.32208,371
956.51251,370
956.70288,366
956.89319,377
957.08356,377
957.27393,377
957.46423,376
957.65454,387
957.84485,395
958.03516,394
958.22546,401
958.41577,400
958.60602,410
958.79633,407
958.98657,411
959.17682,412
959.36707,412
959.55731,419
959.74756,411
959.93774,411
960.12799,414
960.31818,410
960.50836,416
960.69855,413
960.88873,414
961.07892,410
961.26904,415
961.45923,414
961.64935,408
961.83948,404
962.0296,404
962.21973,405
962.40979,395
962.59991,405
962.78998,404
962.9801,397
963.17017,399
963.36023,395
963.55023,403
963.7403,393
963.9303,394
964.12036,391
964.31036,400
964.50037,399
964.69037,391
964.88037,390
965.07031,386
965.26031,387
965.45026,387
965.6402,392
965.83014,395
966.02008,385
966.21002,386
966.3999,377
966.58984,383
966.77972,395
966.9696,394
967.15948,379
967.34937,386
967.53925,387
967.72906,393
967.91895,834
968.10876,592
968.29858,413
968.4884,392
968.67822,394
968.86798,399
969.0578,408
969.24756,401
969.43732,400
969.62708,408
969.81683,412
970.00659,405
970.19629,412
970.38599,418
970.57574,428
970.76544,429
970.95514,435
971.14478,436
971.33447,435
971.52417,439
971.71381,449
971.90344,459
972.09308,463
972.28271,464
972.47235,472
972.66193,469
972.8515,476
973.04114,474
973.23071,481
973.42029,489
973.6098,481
973.79938,489
973.98889,492
974.17847,482
974.36798,495
974.5575,496
974.74701,504
974.93646,488
975.12598,492
975.31543,494
975.50488,491
975.69434,501
975.88379,495
976.07324,502
976.26263,503
976.45209,513
976.64148,516
976.83087,517
977.02026,510
977.20966,517
977.39899,513
977.58838,524
977.77771,521
977.96704,523
978.15637,535
978.3457,528
978.53497,522
978.7243,526
978.91357,521
979.10284,517
979.29211,522
979.48138,532
979.67065,527
979.85986,547
980.04913,530
980.23834,522
980.42755,520
980.61676,524
980.80591,531
980.99512,524
981.18427,541
981.37341,533
981.56256,541
981.75171,550
981.94086,553
982.12994,528
982.31909,532
982.50818,545
982.69727,562
982.88635,554
983.07544,544
983.26447,537
983.45355,546
983.64258,549
983.8316,548
984.02063,559
984.20959,554
984.39862,542
984.58759,555
984.77661,560
984.96558,568
985.15448,563
985.34344,559
985.53241,566
985.72131,561
985.91022,572
986.09912,599
986.28802,597
986.47693,589
986.66577,598
986.85468,586
987.04352,597
987.23236,598
987.4212,624
987.61005,615
987.79883,613
987.98761,625
988.17645,638
988.36523,628
988.55396,644
988.74274,643
988.93152,630
989.12024,636
989.30896,638
989.49768,638
989.6864,645
989.87506,647
990.06378,640
990.25244,668
990.4411,671
990.62976,684
990.81842,687
991.00708,678
991.19568,687
991.38428,674
991.57288,701
991.76147,695
991.95007,683
992.13867,685
992.32721,687
992.51575,692
992.70428,687
992.89282,687
993.08136,675
993.26984,670
993.45837,688
993.64685,679
993.83533,670
994.0238,654
994.21222,643
994.4007,665
994.58911,652
994.77753,668
994.96594,665
995.15436,644
995.34271,626
995.53113,630
995.71948,633
995.90784,607
996.09619,602
996.28455,598
996.47284,574
996.66119,570
996.84949,567
997.03778,536
997.22607,517
997.41431,516
997.6026,507
997.79083,490
997.97906,494
998.1673,477
998.35553,473
998.5437,466
998.73193,452
998.9201,445
999.10828,438
999.29645,434
999.48456,437
999.67273,420
999.86084,421
1000.049,410
1000.2371,415
1000.4252,406
1000.6132,392
1000.8013,402
1000.9894,399
1001.1774,392
1001.3655,395
1001.5535,391
1001.7415,386
1001.9295,381
1002.1175,384
1002.3055,386
1002.4935,391
1002.6814,382
1002.8694,386
1003.0573,381
1003.2452,375
1003.4332,366
1003.621,364
1003.809,366
1003.9968,357
1004.1847,355
1004.3726,355
1004.5604,355
1004.7482,346
1004.9361,344
1005.1239,346
1005.3117,341
1005.4995,341
1005.6873,333
1005.875,327
1006.0628,314
1006.2505,310
1006.4382,301
1006.626,306
1006.8137,296
1007.0014,296
1007.1891,290
1007.3768,284
1007.5644,271
1007.7521,267
1007.9397,258
1008.1273,252
1008.3149,251
1008.5026,257
1008.6902,324
1008.8777,1579
1009.0653,334
1009.2529,257
1009.4404,247
1009.628,246
1009.8155,246
1010.003,244
1010.1905,245
1010.378,244
1010.5655,248
1010.7529,243
1010.9404,243
1011.1279,246
1011.3153,247
1011.5027,246
1011.6901,243
1011.8775,247
1012.0649,246
1012.2523,245
1012.4396,245
1012.627,243
1012.8143,247
1013.0016,242
1013.189,244
1013.3763,245
1013.5636,244
1013.7509,245
1013.9381,243
1014.1254,242
1014.3126,246
1014.4998,244
1014.6871,244
1014.8743,245
1015.0615,247
1015.2487,244
1015.4359,243
1015.623,245
1015.8101,245
1015.9973,242
1016.1844,245
1016.3715,243
1016.5586,244
1016.7457,245
1016.9328,245
1017.1198,245
1017.3069,248
1017.494,245
1017.681,242
1017.868,245
1018.055,244
1018.2419,243
1018.429,246
1018.6159,245
1018.8029,246
1018.9898,244
1019.1768,245
1019.3636,246
1019.5506,245
1019.7375,246
1019.9244,242
1020.1112,244
1020.2981,245
1020.4849,246
1020.6718,243
1020.8586,246
1021.0454,245
1021.2322,248
1021.4189,246
1021.6057,247
1021.7925,248
1021.9792,245
1022.166,243
1022.3527,247
1022.5394,247
1022.7261,245
1022.9128,244
1023.0995,248
1023.2861,247
1023.4728,247
1023.6594,245
1023.846,244
1024.0326,245
1024.2192,244
1024.4059,245
1024.5924,244
1024.7789,244
1024.9655,245
1025.1521,248
1025.3386,248
1025.525,247
1025.7115,247
1025.8981,245
1026.0845,243
1026.271,246
1026.4574,245
1026.6439,247
1026.8303,247
1027.0167,249
1027.2031,250
1027.3895,252
1027.5758,260
1027.7622,266
1027.9486,261
1028.1349,261
1028.3212,265
1028.5076,274
1028.6938,286
1028.8801,318
1029.0664,324
1029.2527,291
1029.4388,262
1029.6251,255
1029.8113,252
1029.9976,248
1030.1837,247
1030.3699,247
1030.556,246
1030.7422,247
1030.9283,244
1031.1145,244
1031.3007,245
1031.4867,245
1031.6729,248
1031.8589,245
1032.0449,247
1032.231,248
1032.417,248
1032.603,245
1032.7891,246
1032.9751,249
1033.161,247
1033.347,243
1033.533,244
1033.719,246
1033.9049,245
1034.0908,247
1034.2767,245
1034.4626,245
1034.6484,244
1034.8344,245
1035.0203,245
1035.2061,245
1035.3918,244
1035.5778,245
1035.7635,246
1035.9493,246
1036.1351,245
1036.3208,245
1036.5066,244
1036.6924,245
1036.8781,248
1037.0637,243
1037.2495,245
1037.4352,247
1037.6208,247
1037.8065,245
1037.9922,247
1038.1777,245
1038.3634,243
1038.549,246
1038.7346,246
1038.9202,246
1039.1057,246
1039.2913,245
1039.4768,246
1039.6624,244
1039.8479,244
1040.0333,245
1040.2189,245
1040.4043,246
1040.5897,244
1040.7753,243
1040.9607,245
1041.1461,243
1041.3314,246
1041.5168,243
1041.7023,246
1041.8876,247
1042.073,245
1042.2583,245
1042.4436,243
1042.6289,247
1042.8142,244
1042.9995,243
1043.1848,245
1043.37,243
1043.5553,244
1043.7405,243
1043.9257,246
1044.111,247
1044.2961,243
1044.4813,244
1044.6664,245
1044.8516,244
1045.0367,244
1045.2218,244
1045.407,245
1045.592,246
1045.7771,247
1045.9622,245
1046.1472,245
1046.3323,245
1046.5173,244
1046.7023,243
1046.8873,245
1047.0723,246
1047.2572,246
1047.4421,246
1047.6271,247
1047.812,245
1047.9969,244
1048.1819,245
1048.3667,244
1048.5516,245
1048.7365,245
1048.9213,244
1049.1062,243
1049.291,243
1049.4757,244
1049.6605,244
1049.8453,244
1050.03,248
1050.2148,249
1050.3995,242
1050.5842,247
1050.7689,246
1050.9536,245
1051.1383,246
1051.323,243
1051.5077,243
1051.6923,245
1051.877,244
1052.0615,247
1052.2461,246
1052.4307,244
1052.6152,246
1052.7998,245
1052.9843,245
1053.1688,243
1053.3534,246
1053.5378,244
1053.7223,245
1053.9067,247
1054.0912,245
1054.2756,245
1054.4601,248
1054.6445,245
1054.8289,245
1055.0133,247
1055.1976,247
1055.382,244
1055.5663,247
1055.7506,247
1055.9349,243
1056.1193,247
1056.3035,247
1056.4878,248
1056.672,246
1056.8562,244
1057.0404,245
1057.2246,243
1057.4088,246
1057.593,245
1057.7772,244
1057.9613,243
1058.1455,244
1058.3296,246
1058.5137,245
1058.6978,246
1058.8818,245
1059.0659,245
1059.25,247
1059.434,247
1059.618,247
1059.802,247
1059.986,246
1060.17,246
1060.3539,246
1060.5378,247
1060.7218,248
1060.9058,245
1061.0896,247
1061.2736,245
1061.4574,244
1061.6412,246
1061.8251,246
1062.0089,246
1062.1927,251
1062.3765,254
1062.5603,257
1062.744,262
1062.9279,265
1063.1116,263
1063.2953,275
1063.479,284
1063.6627,314
1063.8464,320
1064.03,290
1064.2137,270
1064.3973,258
1064.5809,251
1064.7645,251
1064.9481,248
1065.1317,247
1065.3153,251
1065.4988,249
1065.6824,247
1065.8658,246
1066.0493,246
1066.2329,248
1066.4164,245
1066.5997,245
1066.7832,245
1066.9667,245
1067.15,244
1067.3335,244
1067.5168,246
1067.7002,245
1067.8835,248
1068.0669,243
1068.2502,243
1068.4335,243
1068.6168,247
1068.8,246
1068.9834,244
1069.1666,248
1069.3499,243
1069.5331,244
1069.7162,247
1069.8994,246
1070.0826,246
1070.2657,243
1070.4489,248
1070.6321,245
1070.8152,246
1070.9982,244
1071.1813,244
1071.3644,245
1071.5474,243
1071.7305,242
1071.9135,244
1072.0964,244
1072.2794,246
1072.4624,244
1072.6454,243
1072.8284,245
1073.0112,244
1073.1942,247
1073.3771,247
1073.5599,245
1073.7428,244
1073.9257,245
1074.1085,246
1074.2913,245
1074.4741,244
1074.6569,244
1074.8397,245
1075.0225,246
1075.2052,244
1075.3879,243
1075.5706,244
1075.7533,245
1075.9359,247
1076.1187,246
1076.3013,242
1076.4839,243
1076.6665,246
1076.8491,246
1077.0317,245
1077.2142,245
1077.3969,246
1077.5793,245
1077.762,245
1077.9445,244
1078.127,241
1078.3093,246
1078.4918,247
1078.6743,244
1078.8567,245
1079.0392,243
1079.2216,245
1079.4039,246
1079.5863,244
1079.7687,243
1079.9509,243
1080.1333,245
1080.3156,243
1080.4979,243
1080.6802,251
1080.8624,245
1081.0447,241
1081.2269,245
1081.4091,244
1081.5913,246
1081.7734,245
1081.9556,245
1082.1377,245
1082.3198,246
1082.502,247
1082.6841,242
1082.8662,244
1083.0482,246
1083.2303,243
1083.4124,243
1083.5944,244
1083.7764,245
1083.9584,246
1084.1403,244
1084.3223,247
1084.5042,244
1084.6862,246
1084.868,246
1085.0499,244
1085.2318,246
1085.4137,247
1085.5955,245
1085.7773,247
1085.9591,244
1086.1409,246
1086.3226,245
1086.5044,246
1086.6862,245
1086.8679,244
1087.0497,245
1087.2313,246
1087.413,245
1087.5947,247
1087.7764,245
1087.958,243
1088.1395,243
1088.3212,246
1088.5027,246
1088.6843,246
1088.8658,246
1089.0474,242
1089.2289,245
1089.4104,243
1089.5919,245
1089.7733,242
1089.9548,244
1090.1362,245
1090.3176,247
1090.499,245
1090.6804,244
1090.8618,246
1091.0432,243
1091.2245,244
1091.4059,242
1091.5872,243
1091.7684,244
1091.9497,249
1092.131,245
1092.3123,245
1092.4934,245
1092.6747,245
1092.8558,243
1093.037,244
1093.2181,243
1093.3993,245
1093.5804,244
1093.7615,245
1093.9426,245
1094.1237,244
1094.3047,245
1094.4857,247
1094.6667,244
1094.8478,243
1095.0288,247
1095.2097,245
1095.3907,244
1095.5717,247
1095.7526,247
1095.9335,243
1096.1144,245
1096.2953,247
1096.4761,243
1096.657,247
1096.8378,245
1097.0186,242
1097.1993,245
1097.3801,246
1097.5609,246
1097.7416,245
1097.9224,245
1098.103,244
1098.2837,248
1098.4644,246
1098.645,245
1098.8257,243
1099.0063,244
1099.1869,242
1099.3676,245
1099.5481,244
1099.7286,243
1099.9092,244
1100.0897,245
1100.2701,243
1100.4507,243
1100.6311,244
1100.8116,244
1100.9921,243
1101.1725,246
1101.3529,243
1101.5332,245
1101.7136,247
1101.8939,246
1102.0742,241
1102.2546,246
1102.4349,246
1102.6151,245
1102.7954,244
1102.9757,243
1103.1559,246
1103.3361,247
1103.5164,243
1103.6965,242
1103.8767,246
1104.0568,245
1104.2369,244
1104.417,246
1104.5972,246
1104.7772,243
1104.9573,243
1105.1373,242
1105.3173,244
1105.4973,245
1105.6772,245
1105.8573,245
1106.0372,247
1106.2172,245
1106.3971,242
1106.577,245
1106.7568,244
1106.9368,244
1107.1166,244
1107.2964,248
1107.4762,245
1107.656,245
1107.8358,243
1108.0156,241
1108.1953,245
1108.375,245
1108.5547,244
1108.7345,246
1108.9141,242
1109.0938,242
1109.2734,244
1109.453,242
1109.6327,243
1109.8123,245
1109.9918,244
1110.1714,245
1110.3508,243
1110.5304,244
1110.7098,243
1110.8894,249
1111.0688,246
1111.2483,244
1111.4277,244
1111.6072,243
1111.7865,243
1111.9659,244
1112.1453,245
1112.3246,243
1112.5039,246
1112.6832,248
1112.8625,246
1113.0417,245
1113.2211,243
1113.4003,246
1113.5795,318
1113.7587,411
1113.9379,523
1114.1171,248
1114.2961,242
1114.4753,243
1114.6544,244
1114.8335,247
1115.0126,246
1115.1917,245
1115.3706,243
1115.5497,246
1115.7286,242
1115.9077,245
1116.0867,245
1116.2656,247
1116.4445,244
1116.6234,245
1116.8024,243
1116.9812,245
1117.16,247
1117.3389,248
