Date and Time:                Wed Dec 4 18:42:34.216 2024
Software Version:             4.32.30091.0
Temperature (C):              -80
Model:                        DU420_OE
Data Type:                    Counts
Acquisition Mode:             Single Scan
Trigger Mode:                 Internal
Exposure Time (secs):         100
Readout Mode:                 Full Vertical Binning
Horizontal binning:           1
Shutter Mode:                 Fully AUTO
TTL level:                    High
Time to open:                 10 ms
Time to close:                0 ms
Extended Data Range:          off
Horizontally flipped:         false
Vertical Shift Speed (usecs): 32.25
Pixel Readout Time (usecs):   10
Serial Number:                CCD-28590
Pre-Amplifier Gain:           1.7x
Spurious Noise Filter Mode:   No Filter
Photon counted:               false
Data Averaging Filter Mode:   No Filter
KY193i:
Serial Number:                KY-4498
Wavelength (nm):              1023.66
Grating Groove Density (l/mm):600
Grating Blaze:                1000nm



926.90875,251
927.10028,250
927.29187,251
927.4834,254
927.67499,253
927.86652,254
928.05804,252
928.24957,256
928.44104,255
928.63257,256
928.8241,257
929.01556,252
929.20709,253
929.39856,253
929.59003,255
929.78149,256
929.97296,257
930.16443,254
930.35583,254
930.5473,257
930.73871,257
930.93018,261
931.12158,256
931.31299,252
931.50439,257
931.6958,254
931.88721,258
932.07855,256
932.26996,258
932.4613,255
932.65265,258
932.84399,260
933.0354,259
933.22668,255
933.41803,258
933.60938,258
933.80066,259
933.992,260
934.18329,261
934.37457,260
934.56586,261
934.75714,258
934.94843,259
935.13971,259
935.33099,260
935.52222,262
935.71344,259
935.90472,259
936.09595,261
936.28717,259
936.47839,262
936.66956,260
936.86078,261
937.05194,263
937.24316,261
937.43433,259
937.62549,261
937.81665,263
938.00781,268
938.19897,263
938.39014,263
938.58124,261
938.77234,262
938.9635,262
939.1546,265
939.3457,264
939.5368,264
939.72791,263
939.91895,266
940.11005,264
940.30109,267
940.49213,267
940.68323,265
940.87427,267
941.06525,268
941.25629,268
941.44733,266
941.63831,266
941.82935,267
942.02032,267
942.2113,266
942.40228,270
942.59326,270
942.78424,267
942.97516,268
943.16614,268
943.35706,271
943.54803,273
943.73895,280
943.92987,271
944.12079,273
944.31165,279
944.50256,275
944.69342,274
944.88434,279
945.0752,274
945.26605,283
945.45691,278
945.64777,279
945.83856,276
946.02942,284
946.22021,278
946.41107,279
946.60187,284
946.79266,282
946.98346,288
947.17426,287
947.36499,283
947.55579,286
947.74652,293
947.93726,291
948.12799,290
948.31873,292
948.50946,288
948.7002,291
948.89093,294
949.0816,290
949.27228,293
949.46301,294
949.65369,295
949.8443,297
950.03497,299
950.22565,295
950.41626,303
950.60693,300
950.79755,307
950.98816,308
951.17877,308
951.36938,309
951.56,312
951.75055,308
951.94116,316
952.13171,315
952.32227,318
952.51282,314
952.70337,324
952.89392,321
953.08441,330
953.27496,325
953.46545,330
953.65594,330
953.84644,330
954.03693,344
954.22742,343
954.41791,351
954.60834,344
954.79883,353
954.98926,363
955.17969,360
955.37012,356
955.56055,363
955.75092,371
955.94135,380
956.13171,390
956.32208,390
956.51251,391
956.70288,396
956.89319,395
957.08356,407
957.27393,410
957.46423,403
957.65454,432
957.84485,423
958.03516,425
958.22546,432
958.41577,431
958.60602,433
958.79633,433
958.98657,452
959.17682,448
959.36707,442
959.55731,439
959.74756,443
959.93774,447
960.12799,446
960.31818,445
960.50836,451
960.69855,446
960.88873,437
961.07892,434
961.26904,448
961.45923,438
961.64935,441
961.83948,431
962.0296,435
962.21973,422
962.40979,421
962.59991,439
962.78998,418
962.9801,432
963.17017,422
963.36023,422
963.55023,425
963.7403,409
963.9303,416
964.12036,412
964.31036,415
964.50037,421
964.69037,416
964.88037,420
965.07031,410
965.26031,413
965.45026,407
965.6402,412
965.83014,425
966.02008,435
966.21002,504
966.3999,458
966.58984,416
966.77972,414
966.9696,414
967.15948,405
967.34937,404
967.53925,405
967.72906,407
967.91895,402
968.10876,401
968.29858,405
968.4884,406
968.67822,405
968.86798,407
969.0578,421
969.24756,421
969.43732,422
969.62708,425
969.81683,435
970.00659,425
970.19629,438
970.38599,435
970.57574,445
970.76544,448
970.95514,456
971.14478,453
971.33447,465
971.52417,468
971.71381,479
971.90344,478
972.09308,478
972.28271,494
972.47235,499
972.66193,499
972.8515,489
973.04114,490
973.23071,506
973.42029,500
973.6098,513
973.79938,505
973.98889,505
974.17847,506
974.36798,516
974.5575,505
974.74701,522
974.93646,498
975.12598,512
975.31543,505
975.50488,511
975.69434,511
975.88379,511
976.07324,510
976.26263,522
976.45209,525
976.64148,531
976.83087,531
977.02026,521
977.20966,525
977.39899,536
977.58838,540
977.77771,531
977.96704,553
978.15637,548
978.3457,543
978.53497,535
978.7243,545
978.91357,544
979.10284,527
979.29211,542
979.48138,550
979.67065,545
979.85986,541
980.04913,551
980.23834,531
980.42755,530
980.61676,534
980.80591,550
980.99512,536
981.18427,539
981.37341,543
981.56256,554
981.75171,551
981.94086,542
982.12994,553
982.31909,548
982.50818,550
982.69727,557
982.88635,550
983.07544,545
983.26447,538
983.45355,545
983.64258,551
983.8316,547
984.02063,572
984.20959,549
984.39862,540
984.58759,560
984.77661,548
984.96558,558
985.15448,562
985.34344,566
985.53241,571
985.72131,574
985.91022,555
986.09912,593
986.28802,604
986.47693,584
986.66577,599
986.85468,590
987.04352,594
987.23236,598
987.4212,625
987.61005,604
987.79883,613
987.98761,619
988.17645,613
988.36523,626
988.55396,634
988.74274,635
988.93152,631
989.12024,625
989.30896,625
989.49768,623
989.6864,650
989.87506,643
990.06378,653
990.25244,655
990.4411,659
990.62976,675
990.81842,677
991.00708,646
991.19568,678
991.38428,684
991.57288,689
991.76147,677
991.95007,663
992.13867,677
992.32721,686
992.51575,675
992.70428,666
992.89282,676
993.08136,661
993.26984,665
993.45837,659
993.64685,669
993.83533,657
994.0238,628
994.21222,628
994.4007,631
994.58911,648
994.77753,645
994.96594,647
995.15436,630
995.34271,613
995.53113,623
995.71948,605
995.90784,570
996.09619,580
996.28455,573
996.47284,552
996.66119,549
996.84949,543
997.03778,515
997.22607,499
997.41431,701
997.6026,584
997.79083,473
997.97906,463
998.1673,451
998.35553,438
998.5437,442
998.73193,423
998.9201,408
999.10828,412
999.29645,403
999.48456,401
999.67273,396
999.86084,389
1000.049,385
1000.2371,391
1000.4252,379
1000.6132,371
1000.8013,375
1000.9894,371
1001.1774,376
1001.3655,374
1001.5535,362
1001.7415,367
1001.9295,358
1002.1175,363
1002.3055,354
1002.4935,364
1002.6814,360
1002.8694,361
1003.0573,358
1003.2452,350
1003.4332,342
1003.621,343
1003.809,336
1003.9968,337
1004.1847,338
1004.3726,340
1004.5604,335
1004.7482,335
1004.9361,325
1005.1239,321
1005.3117,317
1005.4995,326
1005.6873,318
1005.875,309
1006.0628,301
1006.2505,304
1006.4382,290
1006.626,292
1006.8137,288
1007.0014,285
1007.1891,279
1007.3768,271
1007.5644,265
1007.7521,260
1007.9397,255
1008.1273,250
1008.3149,247
1008.5026,251
1008.6902,248
1008.8777,246
1009.0653,244
1009.2529,244
1009.4404,243
1009.628,244
1009.8155,244
1010.003,243
1010.1905,246
1010.378,245
1010.5655,247
1010.7529,245
1010.9404,243
1011.1279,244
1011.3153,245
1011.5027,244
1011.6901,247
1011.8775,247
1012.0649,246
1012.2523,245
1012.4396,245
1012.627,243
1012.8143,246
1013.0016,247
1013.189,246
1013.3763,244
1013.5636,247
1013.7509,244
1013.9381,245
1014.1254,246
1014.3126,243
1014.4998,247
1014.6871,247
1014.8743,243
1015.0615,247
1015.2487,244
1015.4359,245
1015.623,245
1015.8101,245
1015.9973,244
1016.1844,246
1016.3715,247
1016.5586,243
1016.7457,244
1016.9328,245
1017.1198,246
1017.3069,245
1017.494,243
1017.681,245
1017.868,243
1018.055,244
1018.2419,246
1018.429,245
1018.6159,243
1018.8029,244
1018.9898,246
1019.1768,246
1019.3636,243
1019.5506,245
1019.7375,245
1019.9244,246
1020.1112,247
1020.2981,244
1020.4849,246
1020.6718,247
1020.8586,246
1021.0454,246
1021.2322,245
1021.4189,245
1021.6057,245
1021.7925,244
1021.9792,245
1022.166,248
1022.3527,244
1022.5394,244
1022.7261,247
1022.9128,244
1023.0995,245
1023.2861,245
1023.4728,244
1023.6594,245
1023.846,246
1024.0326,246
1024.2192,246
1024.4059,247
1024.5924,245
1024.7789,246
1024.9655,245
1025.1521,249
1025.3386,246
1025.525,245
1025.7115,247
1025.8981,247
1026.0845,247
1026.271,246
1026.4574,247
1026.6439,249
1026.8303,245
1027.0167,247
1027.2031,248
1027.3895,253
1027.5758,255
1027.7622,260
1027.9486,264
1028.1349,265
1028.3212,264
1028.5076,277
1028.6938,294
1028.8801,331
1029.0664,335
1029.2527,292
1029.4388,267
1029.6251,259
1029.8113,249
1029.9976,248
1030.1837,249
1030.3699,247
1030.556,245
1030.7422,246
1030.9283,245
1031.1145,249
1031.3007,246
1031.4867,247
1031.6729,245
1031.8589,246
1032.0449,247
1032.231,245
1032.417,249
1032.603,244
1032.7891,247
1032.9751,246
1033.161,244
1033.347,247
1033.533,247
1033.719,246
1033.9049,247
1034.0908,247
1034.2767,245
1034.4626,244
1034.6484,245
1034.8344,246
1035.0203,244
1035.2061,243
1035.3918,247
1035.5778,246
1035.7635,245
1035.9493,246
1036.1351,247
1036.3208,243
1036.5066,244
1036.6924,244
1036.8781,246
1037.0637,246
1037.2495,245
1037.4352,246
1037.6208,245
1037.8065,247
1037.9922,245
1038.1777,243
1038.3634,245
1038.549,249
1038.7346,244
1038.9202,245
1039.1057,245
1039.2913,247
1039.4768,247
1039.6624,244
1039.8479,245
1040.0333,249
1040.2189,244
1040.4043,246
1040.5897,246
1040.7753,243
1040.9607,247
1041.1461,246
1041.3314,244
1041.5168,248
1041.7023,246
1041.8876,244
1042.073,245
1042.2583,247
1042.4436,246
1042.6289,246
1042.8142,246
1042.9995,245
1043.1848,245
1043.37,244
1043.5553,243
1043.7405,245
1043.9257,244
1044.111,245
1044.2961,244
1044.4813,243
1044.6664,244
1044.8516,245
1045.0367,244
1045.2218,245
1045.407,245
1045.592,244
1045.7771,243
1045.9622,244
1046.1472,245
1046.3323,244
1046.5173,245
1046.7023,243
1046.8873,245
1047.0723,247
1047.2572,245
1047.4421,246
1047.6271,246
1047.812,244
1047.9969,245
1048.1819,246
1048.3667,245
1048.5516,245
1048.7365,247
1048.9213,245
1049.1062,245
1049.291,245
1049.4757,247
1049.6605,244
1049.8453,243
1050.03,243
1050.2148,245
1050.3995,248
1050.5842,244
1050.7689,242
1050.9536,247
1051.1383,245
1051.323,244
1051.5077,242
1051.6923,247
1051.877,245
1052.0615,245
1052.2461,246
1052.4307,245
1052.6152,245
1052.7998,245
1052.9843,245
1053.1688,247
1053.3534,247
1053.5378,243
1053.7223,244
1053.9067,245
1054.0912,245
1054.2756,244
1054.4601,245
1054.6445,247
1054.8289,246
1055.0133,246
1055.1976,247
1055.382,246
1055.5663,243
1055.7506,247
1055.9349,246
1056.1193,247
1056.3035,246
1056.4878,246
1056.672,244
1056.8562,245
1057.0404,246
1057.2246,246
1057.4088,243
1057.593,244
1057.7772,244
1057.9613,246
1058.1455,247
1058.3296,243
1058.5137,247
1058.6978,246
1058.8818,244
1059.0659,246
1059.25,245
1059.434,248
1059.618,247
1059.802,246
1059.986,247
1060.17,244
1060.3539,245
1060.5378,248
1060.7218,247
1060.9058,245
1061.0896,243
1061.2736,248
1061.4574,247
1061.6412,249
1061.8251,247
1062.0089,251
1062.1927,250
1062.3765,253
1062.5603,255
1062.744,259
1062.9279,264
1063.1116,265
1063.2953,271
1063.479,284
1063.6627,305
1063.8464,309
1064.03,286
1064.2137,265
1064.3973,258
1064.5809,250
1064.7645,246
1064.9481,250
1065.1317,248
1065.3153,247
1065.4988,250
1065.6824,249
1065.8658,245
1066.0493,246
1066.2329,244
1066.4164,246
1066.5997,246
1066.7832,246
1066.9667,246
1067.15,243
1067.3335,246
1067.5168,245
1067.7002,243
1067.8835,244
1068.0669,244
1068.2502,246
1068.4335,244
1068.6168,245
1068.8,246
1068.9834,244
1069.1666,248
1069.3499,244
1069.5331,245
1069.7162,244
1069.8994,246
1070.0826,246
1070.2657,245
1070.4489,243
1070.6321,244
1070.8152,243
1070.9982,246
1071.1813,245
1071.3644,245
1071.5474,244
1071.7305,243
1071.9135,243
1072.0964,245
1072.2794,243
1072.4624,244
1072.6454,243
1072.8284,244
1073.0112,242
1073.1942,246
1073.3771,248
1073.5599,246
1073.7428,245
1073.9257,248
1074.1085,400
1074.2913,551
1074.4741,253
1074.6569,244
1074.8397,245
1075.0225,244
1075.2052,244
1075.3879,245
1075.5706,247
1075.7533,244
1075.9359,246
1076.1187,246
1076.3013,246
1076.4839,246
1076.6665,245
1076.8491,245
1077.0317,246
1077.2142,244
1077.3969,247
1077.5793,247
1077.762,243
1077.9445,243
1078.127,245
1078.3093,243
1078.4918,245
1078.6743,243
1078.8567,246
1079.0392,244
1079.2216,246
1079.4039,245
1079.5863,243
1079.7687,242
1079.9509,244
1080.1333,246
1080.3156,245
1080.4979,246
1080.6802,245
1080.8624,246
1081.0447,246
1081.2269,246
1081.4091,243
1081.5913,243
1081.7734,244
1081.9556,246
1082.1377,243
1082.3198,245
1082.502,246
1082.6841,243
1082.8662,244
1083.0482,245
1083.2303,245
1083.4124,246
1083.5944,244
1083.7764,244
1083.9584,244
1084.1403,245
1084.3223,245
1084.5042,242
1084.6862,244
1084.868,245
1085.0499,246
1085.2318,244
1085.4137,244
1085.5955,245
1085.7773,245
1085.9591,244
1086.1409,245
1086.3226,247
1086.5044,244
1086.6862,245
1086.8679,245
1087.0497,245
1087.2313,244
1087.413,244
1087.5947,246
1087.7764,245
1087.958,243
1088.1395,246
1088.3212,246
1088.5027,247
1088.6843,245
1088.8658,247
1089.0474,245
1089.2289,245
1089.4104,243
1089.5919,242
1089.7733,243
1089.9548,246
1090.1362,246
1090.3176,245
1090.499,245
1090.6804,246
1090.8618,244
1091.0432,243
1091.2245,245
1091.4059,244
1091.5872,245
1091.7684,245
1091.9497,247
1092.131,251
1092.3123,559
1092.4934,376
1092.6747,257
1092.8558,246
1093.037,247
1093.2181,243
1093.3993,247
1093.5804,246
1093.7615,244
1093.9426,246
1094.1237,247
1094.3047,247
1094.4857,247
1094.6667,243
1094.8478,246
1095.0288,245
1095.2097,245
1095.3907,245
1095.5717,244
1095.7526,246
1095.9335,243
1096.1144,245
1096.2953,247
1096.4761,243
1096.657,246
1096.8378,244
1097.0186,247
1097.1993,245
1097.3801,243
1097.5609,245
1097.7416,244
1097.9224,245
1098.103,246
1098.2837,244
1098.4644,246
1098.645,245
1098.8257,244
1099.0063,243
1099.1869,243
1099.3676,244
1099.5481,244
1099.7286,244
1099.9092,243
1100.0897,243
1100.2701,244
1100.4507,244
1100.6311,245
1100.8116,256
1100.9921,373
1101.1725,559
1101.3529,495
1101.5332,550
1101.7136,605
1101.8939,785
1102.0742,320
1102.2546,249
1102.4349,245
1102.6151,243
1102.7954,245
1102.9757,244
1103.1559,243
1103.3361,246
1103.5164,243
1103.6965,246
1103.8767,243
1104.0568,243
1104.2369,245
1104.417,245
1104.5972,247
1104.7772,245
1104.9573,243
1105.1373,244
1105.3173,245
1105.4973,244
1105.6772,244
1105.8573,243
1106.0372,245
1106.2172,241
1106.3971,243
1106.577,246
1106.7568,243
1106.9368,245
1107.1166,244
1107.2964,245
1107.4762,242
1107.656,242
1107.8358,244
1108.0156,245
1108.1953,245
1108.375,243
1108.5547,243
1108.7345,243
1108.9141,243
1109.0938,245
1109.2734,244
1109.453,244
1109.6327,243
1109.8123,243
1109.9918,241
1110.1714,246
1110.3508,243
1110.5304,243
1110.7098,243
1110.8894,245
1111.0688,248
1111.2483,245
1111.4277,244
1111.6072,246
1111.7865,244
1111.9659,243
1112.1453,244
1112.3246,244
1112.5039,246
1112.6832,245
1112.8625,246
1113.0417,246
1113.2211,244
1113.4003,246
1113.5795,245
1113.7587,245
1113.9379,244
1114.1171,242
1114.2961,241
1114.4753,243
1114.6544,246
1114.8335,249
1115.0126,246
1115.1917,244
1115.3706,242
1115.5497,242
1115.7286,243
1115.9077,240
1116.0867,245
1116.2656,249
1116.4445,247
1116.6234,245
1116.8024,246
1116.9812,244
1117.16,247
1117.3389,247
