Date and Time:                Wed Dec 4 17:43:54.534 2024
Software Version:             4.32.30091.0
Temperature (C):              -80
Model:                        DU420_OE
Data Type:                    Counts
Acquisition Mode:             Single Scan
Trigger Mode:                 Internal
Exposure Time (secs):         100
Readout Mode:                 Full Vertical Binning
Horizontal binning:           1
Shutter Mode:                 Fully AUTO
TTL level:                    High
Time to open:                 10 ms
Time to close:                0 ms
Extended Data Range:          off
Horizontally flipped:         false
Vertical Shift Speed (usecs): 32.25
Pixel Readout Time (usecs):   10
Serial Number:                CCD-28590
Pre-Amplifier Gain:           1.7x
Spurious Noise Filter Mode:   No Filter
Photon counted:               false
Data Averaging Filter Mode:   No Filter
KY193i:
Serial Number:                KY-4498
Wavelength (nm):              1023.66
Grating Groove Density (l/mm):600
Grating Blaze:                1000nm



926.90875,250
927.10028,253
927.29187,253
927.4834,249
927.67499,251
927.86652,253
928.05804,250
928.24957,250
928.44104,252
928.63257,256
928.8241,257
929.01556,252
929.20709,254
929.39856,250
929.59003,255
929.78149,251
929.97296,253
930.16443,255
930.35583,253
930.5473,252
930.73871,255
930.93018,258
931.12158,258
931.31299,253
931.50439,255
931.6958,256
931.88721,261
932.07855,258
932.26996,254
932.4613,261
932.65265,257
932.84399,253
933.0354,255
933.22668,258
933.41803,254
933.60938,255
933.80066,259
933.992,256
934.18329,261
934.37457,262
934.56586,257
934.75714,260
934.94843,259
935.13971,253
935.33099,257
935.52222,257
935.71344,259
935.90472,256
936.09595,258
936.28717,259
936.47839,260
936.66956,260
936.86078,261
937.05194,258
937.24316,262
937.43433,257
937.62549,261
937.81665,257
938.00781,261
938.19897,261
938.39014,260
938.58124,258
938.77234,259
938.9635,261
939.1546,260
939.3457,256
939.5368,262
939.72791,263
939.91895,258
940.11005,260
940.30109,264
940.49213,264
940.68323,263
940.87427,263
941.06525,263
941.25629,270
941.44733,264
941.63831,265
941.82935,263
942.02032,263
942.2113,266
942.40228,269
942.59326,265
942.78424,265
942.97516,268
943.16614,269
943.35706,267
943.54803,263
943.73895,267
943.92987,269
944.12079,269
944.31165,270
944.50256,271
944.69342,269
944.88434,269
945.0752,269
945.26605,274
945.45691,275
945.64777,273
945.83856,273
946.02942,279
946.22021,274
946.41107,275
946.60187,271
946.79266,275
946.98346,273
947.17426,278
947.36499,277
947.55579,277
947.74652,277
947.93726,276
948.12799,274
948.31873,279
948.50946,285
948.7002,283
948.89093,281
949.0816,282
949.27228,286
949.46301,282
949.65369,282
949.8443,281
950.03497,290
950.22565,289
950.41626,286
950.60693,286
950.79755,292
950.98816,289
951.17877,291
951.36938,292
951.56,290
951.75055,289
951.94116,296
952.13171,299
952.32227,301
952.51282,301
952.70337,303
952.89392,301
953.08441,298
953.27496,302
953.46545,301
953.65594,304
953.84644,308
954.03693,308
954.22742,308
954.41791,316
954.60834,315
954.79883,318
954.98926,326
955.17969,318
955.37012,327
955.56055,325
955.75092,332
955.94135,331
956.13171,332
956.32208,338
956.51251,340
956.70288,348
956.89319,343
957.08356,349
957.27393,351
957.46423,356
957.65454,355
957.84485,363
958.03516,362
958.22546,366
958.41577,364
958.60602,371
958.79633,370
958.98657,373
959.17682,376
959.36707,368
959.55731,375
959.74756,378
959.93774,382
960.12799,375
960.31818,379
960.50836,384
960.69855,379
960.88873,368
961.07892,369
961.26904,375
961.45923,385
961.64935,369
961.83948,371
962.0296,367
962.21973,376
962.40979,371
962.59991,374
962.78998,403
962.9801,617
963.17017,384
963.36023,371
963.55023,364
963.7403,363
963.9303,370
964.12036,365
964.31036,372
964.50037,370
964.69037,359
964.88037,365
965.07031,369
965.26031,362
965.45026,365
965.6402,377
965.83014,367
966.02008,367
966.21002,362
966.3999,363
966.58984,365
966.77972,358
966.9696,357
967.15948,360
967.34937,362
967.53925,372
967.72906,364
967.91895,366
968.10876,368
968.29858,362
968.4884,372
968.67822,374
968.86798,370
969.0578,377
969.24756,382
969.43732,382
969.62708,388
969.81683,396
970.00659,391
970.19629,395
970.38599,396
970.57574,395
970.76544,406
970.95514,408
971.14478,415
971.33447,410
971.52417,407
971.71381,431
971.90344,422
972.09308,439
972.28271,439
972.47235,453
972.66193,449
972.8515,444
973.04114,452
973.23071,456
973.42029,460
973.6098,459
973.79938,463
973.98889,465
974.17847,455
974.36798,465
974.5575,473
974.74701,475
974.93646,470
975.12598,473
975.31543,482
975.50488,476
975.69434,480
975.88379,485
976.07324,486
976.26263,484
976.45209,487
976.64148,507
976.83087,499
977.02026,486
977.20966,496
977.39899,505
977.58838,510
977.77771,501
977.96704,504
978.15637,512
978.3457,513
978.53497,522
978.7243,515
978.91357,507
979.10284,512
979.29211,533
979.48138,521
979.67065,518
979.85986,525
980.04913,519
980.23834,509
980.42755,516
980.61676,517
980.80591,525
980.99512,528
981.18427,535
981.37341,524
981.56256,546
981.75171,535
981.94086,530
982.12994,530
982.31909,533
982.50818,539
982.69727,545
982.88635,541
983.07544,541
983.26447,540
983.45355,546
983.64258,548
983.8316,555
984.02063,544
984.20959,551
984.39862,556
984.58759,563
984.77661,575
984.96558,562
985.15448,567
985.34344,567
985.53241,581
985.72131,592
985.91022,577
986.09912,592
986.28802,602
986.47693,609
986.66577,602
986.85468,596
987.04352,593
987.23236,613
987.4212,644
987.61005,615
987.79883,629
987.98761,625
988.17645,645
988.36523,643
988.55396,643
988.74274,643
988.93152,668
989.12024,649
989.30896,651
989.49768,659
989.6864,650
989.87506,667
990.06378,673
990.25244,685
990.4411,685
990.62976,688
990.81842,706
991.00708,708
991.19568,709
991.38428,693
991.57288,705
991.76147,697
991.95007,709
992.13867,694
992.32721,714
992.51575,709
992.70428,714
992.89282,697
993.08136,694
993.26984,709
993.45837,701
993.64685,699
993.83533,689
994.0238,679
994.21222,676
994.4007,696
994.58911,689
994.77753,685
994.96594,694
995.15436,668
995.34271,663
995.53113,651
995.71948,647
995.90784,644
996.09619,632
996.28455,621
996.47284,603
996.66119,595
996.84949,584
997.03778,546
997.22607,556
997.41431,539
997.6026,532
997.79083,521
997.97906,519
998.1673,498
998.35553,496
998.5437,497
998.73193,484
998.9201,472
999.10828,481
999.29645,458
999.48456,445
999.67273,444
999.86084,440
1000.049,435
1000.2371,429
1000.4252,432
1000.6132,420
1000.8013,426
1000.9894,419
1001.1774,420
1001.3655,419
1001.5535,418
1001.7415,412
1001.9295,409
1002.1175,398
1002.3055,400
1002.4935,403
1002.6814,400
1002.8694,397
1003.0573,397
1003.2452,392
1003.4332,386
1003.621,395
1003.809,461
1003.9968,584
1004.1847,777
1004.3726,374
1004.5604,370
1004.7482,366
1004.9361,362
1005.1239,355
1005.3117,356
1005.4995,360
1005.6873,347
1005.875,347
1006.0628,325
1006.2505,323
1006.4382,315
1006.626,313
1006.8137,310
1007.0014,305
1007.1891,295
1007.3768,286
1007.5644,275
1007.7521,272
1007.9397,261
1008.1273,254
1008.3149,249
1008.5026,251
1008.6902,247
1008.8777,247
1009.0653,245
1009.2529,247
1009.4404,245
1009.628,244
1009.8155,244
1010.003,244
1010.1905,245
1010.378,247
1010.5655,246
1010.7529,243
1010.9404,245
1011.1279,242
1011.3153,244
1011.5027,246
1011.6901,246
1011.8775,243
1012.0649,247
1012.2523,244
1012.4396,244
1012.627,245
1012.8143,245
1013.0016,246
1013.189,246
1013.3763,246
1013.5636,244
1013.7509,244
1013.9381,245
1014.1254,246
1014.3126,245
1014.4998,244
1014.6871,243
1014.8743,244
1015.0615,244
1015.2487,246
1015.4359,247
1015.623,268
1015.8101,489
1015.9973,433
1016.1844,248
1016.3715,245
1016.5586,243
1016.7457,245
1016.9328,245
1017.1198,248
1017.3069,249
1017.494,246
1017.681,243
1017.868,244
1018.055,245
1018.2419,246
1018.429,244
1018.6159,243
1018.8029,245
1018.9898,246
1019.1768,243
1019.3636,244
1019.5506,245
1019.7375,245
1019.9244,244
1020.1112,245
1020.2981,243
1020.4849,243
1020.6718,244
1020.8586,244
1021.0454,247
1021.2322,249
1021.4189,245
1021.6057,248
1021.7925,244
1021.9792,246
1022.166,246
1022.3527,245
1022.5394,247
1022.7261,245
1022.9128,244
1023.0995,243
1023.2861,247
1023.4728,244
1023.6594,250
1023.846,246
1024.0326,245
1024.2192,244
1024.4059,243
1024.5924,247
1024.7789,247
1024.9655,245
1025.1521,246
1025.3386,244
1025.525,247
1025.7115,249
1025.8981,245
1026.0845,246
1026.271,246
1026.4574,247
1026.6439,249
1026.8303,250
1027.0167,250
1027.2031,248
1027.3895,257
1027.5758,258
1027.7622,262
1027.9486,269
1028.1349,271
1028.3212,282
1028.5076,280
1028.6938,293
1028.8801,342
1029.0664,359
1029.2527,303
1029.4388,273
1029.6251,259
1029.8113,250
1029.9976,247
1030.1837,246
1030.3699,249
1030.556,247
1030.7422,245
1030.9283,247
1031.1145,244
1031.3007,245
1031.4867,246
1031.6729,248
1031.8589,246
1032.0449,246
1032.231,245
1032.417,248
1032.603,245
1032.7891,246
1032.9751,246
1033.161,247
1033.347,245
1033.533,247
1033.719,246
1033.9049,248
1034.0908,246
1034.2767,246
1034.4626,247
1034.6484,248
1034.8344,245
1035.0203,244
1035.2061,246
1035.3918,243
1035.5778,248
1035.7635,247
1035.9493,247
1036.1351,247
1036.3208,245
1036.5066,246
1036.6924,245
1036.8781,245
1037.0637,246
1037.2495,244
1037.4352,246
1037.6208,246
1037.8065,244
1037.9922,244
1038.1777,244
1038.3634,244
1038.549,246
1038.7346,247
1038.9202,246
1039.1057,246
1039.2913,245
1039.4768,245
1039.6624,245
1039.8479,247
1040.0333,246
1040.2189,245
1040.4043,246
1040.5897,243
1040.7753,243
1040.9607,243
1041.1461,243
1041.3314,245
1041.5168,247
1041.7023,244
1041.8876,248
1042.073,247
1042.2583,244
1042.4436,246
1042.6289,247
1042.8142,247
1042.9995,246
1043.1848,243
1043.37,245
1043.5553,243
1043.7405,305
1043.9257,827
1044.111,990
1044.2961,257
1044.4813,246
1044.6664,244
1044.8516,243
1045.0367,245
1045.2218,246
1045.407,246
1045.592,246
1045.7771,244
1045.9622,246
1046.1472,247
1046.3323,247
1046.5173,247
1046.7023,246
1046.8873,245
1047.0723,246
1047.2572,244
1047.4421,247
1047.6271,245
1047.812,245
1047.9969,246
1048.1819,246
1048.3667,244
1048.5516,245
1048.7365,244
1048.9213,242
1049.1062,247
1049.291,245
1049.4757,246
1049.6605,249
1049.8453,244
1050.03,247
1050.2148,244
1050.3995,246
1050.5842,242
1050.7689,243
1050.9536,247
1051.1383,245
1051.323,245
1051.5077,247
1051.6923,248
1051.877,246
1052.0615,245
1052.2461,243
1052.4307,248
1052.6152,247
1052.7998,246
1052.9843,249
1053.1688,245
1053.3534,245
1053.5378,244
1053.7223,247
1053.9067,247
1054.0912,247
1054.2756,245
1054.4601,245
1054.6445,248
1054.8289,246
1055.0133,246
1055.1976,246
1055.382,246
1055.5663,244
1055.7506,247
1055.9349,245
1056.1193,248
1056.3035,245
1056.4878,245
1056.672,247
1056.8562,245
1057.0404,245
1057.2246,245
1057.4088,245
1057.593,248
1057.7772,248
1057.9613,243
1058.1455,245
1058.3296,246
1058.5137,246
1058.6978,245
1058.8818,245
1059.0659,250
1059.25,247
1059.434,247
1059.618,248
1059.802,244
1059.986,244
1060.17,242
1060.3539,245
1060.5378,249
1060.7218,247
1060.9058,247
1061.0896,246
1061.2736,249
1061.4574,247
1061.6412,245
1061.8251,247
1062.0089,249
1062.1927,249
1062.3765,255
1062.5603,258
1062.744,259
1062.9279,259
1063.1116,265
1063.2953,271
1063.479,287
1063.6627,303
1063.8464,312
1064.03,285
1064.2137,272
1064.3973,257
1064.5809,251
1064.7645,248
1064.9481,249
1065.1317,249
1065.3153,247
1065.4988,248
1065.6824,249
1065.8658,243
1066.0493,247
1066.2329,244
1066.4164,245
1066.5997,245
1066.7832,245
1066.9667,246
1067.15,247
1067.3335,246
1067.5168,246
1067.7002,247
1067.8835,246
1068.0669,242
1068.2502,244
1068.4335,247
1068.6168,246
1068.8,247
1068.9834,245
1069.1666,246
1069.3499,246
1069.5331,243
1069.7162,245
1069.8994,247
1070.0826,246
1070.2657,242
1070.4489,246
1070.6321,245
1070.8152,243
1070.9982,246
1071.1813,243
1071.3644,245
1071.5474,247
1071.7305,244
1071.9135,244
1072.0964,244
1072.2794,244
1072.4624,246
1072.6454,247
1072.8284,243
1073.0112,246
1073.1942,248
1073.3771,244
1073.5599,245
1073.7428,246
1073.9257,245
1074.1085,244
1074.2913,244
1074.4741,245
1074.6569,243
1074.8397,244
1075.0225,243
1075.2052,246
1075.3879,242
1075.5706,245
1075.7533,245
1075.9359,244
1076.1187,243
1076.3013,245
1076.4839,250
1076.6665,248
1076.8491,246
1077.0317,246
1077.2142,243
1077.3969,245
1077.5793,244
1077.762,242
1077.9445,244
1078.127,246
1078.3093,246
1078.4918,244
1078.6743,246
1078.8567,246
1079.0392,245
1079.2216,243
1079.4039,246
1079.5863,243
1079.7687,245
1079.9509,245
1080.1333,244
1080.3156,245
1080.4979,243
1080.6802,247
1080.8624,247
1081.0447,243
1081.2269,244
1081.4091,246
1081.5913,244
1081.7734,244
1081.9556,245
1082.1377,244
1082.3198,248
1082.502,247
1082.6841,244
1082.8662,246
1083.0482,246
1083.2303,245
1083.4124,243
1083.5944,243
1083.7764,243
1083.9584,245
1084.1403,247
1084.3223,243
1084.5042,245
1084.6862,245
1084.868,245
1085.0499,246
1085.2318,243
1085.4137,245
1085.5955,247
1085.7773,246
1085.9591,246
1086.1409,247
1086.3226,244
1086.5044,242
1086.6862,245
1086.8679,245
1087.0497,244
1087.2313,244
1087.413,243
1087.5947,245
1087.7764,244
1087.958,243
1088.1395,245
1088.3212,244
1088.5027,247
1088.6843,246
1088.8658,243
1089.0474,247
1089.2289,244
1089.4104,245
1089.5919,246
1089.7733,245
1089.9548,243
1090.1362,243
1090.3176,244
1090.499,247
1090.6804,244
1090.8618,247
1091.0432,246
1091.2245,244
1091.4059,243
1091.5872,244
1091.7684,245
1091.9497,246
1092.131,246
1092.3123,245
1092.4934,245
1092.6747,246
1092.8558,245
1093.037,243
1093.2181,246
1093.3993,246
1093.5804,246
1093.7615,245
1093.9426,246
1094.1237,244
1094.3047,247
1094.4857,245
1094.6667,245
1094.8478,246
1095.0288,246
1095.2097,247
1095.3907,245
1095.5717,246
1095.7526,246
1095.9335,243
1096.1144,244
1096.2953,244
1096.4761,247
1096.657,247
1096.8378,244
1097.0186,245
1097.1993,247
1097.3801,244
1097.5609,245
1097.7416,245
1097.9224,243
1098.103,244
1098.2837,244
1098.4644,246
1098.645,244
1098.8257,245
1099.0063,246
1099.1869,244
1099.3676,245
1099.5481,245
1099.7286,244
1099.9092,246
1100.0897,245
1100.2701,244
1100.4507,246
1100.6311,245
1100.8116,244
1100.9921,244
1101.1725,246
1101.3529,245
1101.5332,244
1101.7136,245
1101.8939,246
1102.0742,244
1102.2546,243
1102.4349,246
1102.6151,243
1102.7954,247
1102.9757,246
1103.1559,243
1103.3361,244
1103.5164,244
1103.6965,244
1103.8767,245
1104.0568,247
1104.2369,245
1104.417,246
1104.5972,243
1104.7772,245
1104.9573,245
1105.1373,246
1105.3173,245
1105.4973,244
1105.6772,245
1105.8573,247
1106.0372,242
1106.2172,244
1106.3971,245
1106.577,242
1106.7568,245
1106.9368,242
1107.1166,247
1107.2964,243
1107.4762,244
1107.656,244
1107.8358,244
1108.0156,246
1108.1953,246
1108.375,244
1108.5547,244
1108.7345,244
1108.9141,243
1109.0938,245
1109.2734,244
1109.453,244
1109.6327,242
1109.8123,247
1109.9918,245
1110.1714,243
1110.3508,245
1110.5304,244
1110.7098,243
1110.8894,247
1111.0688,245
1111.2483,245
1111.4277,244
1111.6072,243
1111.7865,245
1111.9659,245
1112.1453,246
1112.3246,243
1112.5039,242
1112.6832,246
1112.8625,246
1113.0417,244
1113.2211,243
1113.4003,245
1113.5795,241
1113.7587,244
1113.9379,244
1114.1171,244
1114.2961,244
1114.4753,246
1114.6544,247
1114.8335,247
1115.0126,246
1115.1917,246
1115.3706,243
1115.5497,246
1115.7286,243
1115.9077,244
1116.0867,246
1116.2656,247
1116.4445,247
1116.6234,245
1116.8024,243
1116.9812,248
1117.16,247
1117.3389,244
